Displacement (mm),Load (kN)
0.0,-0.0568
0.0,-0.0567
0.0,-0.0567
0.0001,-0.0566
0.0002,-0.0565
0.0003,-0.0563
0.0003,-0.0565
0.0003,-0.0564
0.0003,-0.0562
0.0005,-0.0561
0.0007,-0.0557
0.0012,-0.0553
0.0019,-0.0546
0.0027,-0.0538
0.0033,-0.0531
0.0037,-0.0526
0.004,-0.0523
0.0043,-0.0521
0.0046,-0.0517
0.005,-0.0512
0.0054,-0.0509
0.0057,-0.0506
0.0061,-0.0504
0.0064,-0.0499
0.0067,-0.0496
0.007,-0.0492
0.0074,-0.0488
0.0078,-0.0483
0.0082,-0.0478
0.0086,-0.0476
0.0091,-0.0473
0.0095,-0.0469
0.0098,-0.0466
0.01,-0.0462
0.0101,-0.046
0.0103,-0.0459
0.0106,-0.0458
0.0108,-0.0456
0.0111,-0.0453
0.0115,-0.0449
0.0119,-0.0444
0.0124,-0.0438
0.013,-0.0433
0.0135,-0.0428
0.0139,-0.0425
0.0142,-0.0422
0.0144,-0.042
0.0146,-0.0419
0.0148,-0.0416
0.0151,-0.0413
0.0154,-0.0411
0.0157,-0.0408
0.016,-0.0406
0.0164,-0.0403
0.0168,-0.0399
0.0171,-0.0394
0.0174,-0.039
0.0177,-0.0388
0.018,-0.0386
0.0183,-0.0384
0.0187,-0.038
0.0191,-0.0376
0.0195,-0.0373
0.0199,-0.0368
0.0204,-0.0362
0.0208,-0.0358
0.0211,-0.0355
0.0214,-0.0354
0.0216,-0.0353
0.0218,-0.0352
0.022,-0.0349
0.0222,-0.0346
0.0225,-0.0341
0.0229,-0.0339
0.0232,-0.0337
0.0237,-0.0334
0.0242,-0.0327
0.0248,-0.0321
0.0252,-0.0316
0.0256,-0.0314
0.0258,-0.0313
0.026,-0.0312
0.0262,-0.031
0.0264,-0.0308
0.0267,-0.0304
0.027,-0.0301
0.0274,-0.0298
0.0277,-0.0296
0.028,-0.0293
0.0284,-0.029
0.0287,-0.0286
0.029,-0.0283
0.0294,-0.0281
0.0297,-0.0277
0.03,-0.0274
0.0304,-0.0271
0.0308,-0.0267
0.0312,-0.0263
0.0317,-0.0259
0.0321,-0.0257
0.0325,-0.0253
0.0328,-0.0249
0.033,-0.0247
0.0332,-0.0246
0.0334,-0.0244
0.0336,-0.0243
0.0339,-0.0241
0.0342,-0.0238
0.0346,-0.0234
0.035,-0.0229
0.0355,-0.0225
0.036,-0.0221
0.0365,-0.0216
0.0369,-0.0212
0.0372,-0.021
0.0373,-0.0209
0.0375,-0.0207
0.0378,-0.0204
0.0381,-0.0201
0.0384,-0.0199
0.0387,-0.0197
0.039,-0.0195
0.0394,-0.0192
0.0397,-0.0189
0.0401,-0.0186
0.0404,-0.0183
0.0407,-0.0181
0.041,-0.0178
0.0414,-0.0175
0.0417,-0.0172
0.0421,-0.0167
0.0425,-0.0163
0.0429,-0.0159
0.0434,-0.0154
0.0438,-0.0151
0.0441,-0.0148
0.0443,-0.0147
0.0445,-0.0145
0.0447,-0.0145
0.0449,-0.0143
0.0452,-0.0141
0.0455,-0.0138
0.0459,-0.0135
0.0463,-0.0131
0.0467,-0.0127
0.0473,-0.0121
0.0478,-0.0116
0.0482,-0.0112
0.0485,-0.011
0.0487,-0.0108
0.0489,-0.0108
0.0492,-0.0106
0.0494,-0.0104
0.0497,-0.0101
0.05,-0.0099
0.0504,-0.0096
0.0507,-0.0092
0.0511,-0.009
0.0514,-0.0087
0.0517,-0.0086
0.052,-0.0082
0.0523,-0.0079
0.0527,-0.0074
0.053,-0.0071
0.0534,-0.0069
0.0538,-0.0066
0.0542,-0.0062
0.0547,-0.0058
0.0551,-0.0054
0.0555,-0.0052
0.0557,-0.005
0.0559,-0.0049
0.0561,-0.0047
0.0563,-0.0047
0.0566,-0.0045
0.0568,-0.0042
0.0572,-0.0039
0.0576,-0.0035
0.058,-0.003
0.0585,-0.0025
0.0591,-0.0021
0.0596,-0.0017
0.0599,-0.0015
0.0601,-0.0014
0.0603,-0.0011
0.0605,-0.001
0.0608,-0.0009
0.0611,-0.0006
0.0614,-0.0003
0.0617,0.0
0.062,0.0004
0.0624,0.0006
0.0627,0.0009
0.0631,0.0011
0.0634,0.0015
0.0637,0.0016
0.064,0.0018
0.0643,0.002
0.0647,0.0024
0.0651,0.0028
0.0655,0.0031
0.066,0.0035
0.0664,0.004
0.0668,0.0044
0.0671,0.0046
0.0673,0.0047
0.0675,0.0048
0.0677,0.005
0.0679,0.0052
0.0682,0.0053
0.0685,0.0056
0.0689,0.0059
0.0693,0.0062
0.0698,0.0067
0.0704,0.0073
0.0709,0.0077
0.0713,0.008
0.0715,0.0082
0.0717,0.0083
0.0719,0.0085
0.0721,0.0086
0.0724,0.0088
0.0727,0.009
0.073,0.0093
0.0734,0.0096
0.0737,0.01
0.0741,0.0103
0.0744,0.0105
0.0747,0.0108
0.0751,0.0111
0.0754,0.0113
0.0757,0.0116
0.0761,0.0118
0.0764,0.0121
0.0768,0.0124
0.0773,0.0128
0.0777,0.0133
0.0781,0.0137
0.0785,0.0139
0.0787,0.014
0.0789,0.014
0.0791,0.0142
0.0793,0.0144
0.0796,0.0146
0.0799,0.0148
0.0802,0.0151
0.0806,0.0154
0.0811,0.0158
0.0816,0.0162
0.0821,0.0167
0.0826,0.0172
0.0829,0.0175
0.0831,0.0176
0.0833,0.0176
0.0835,0.0177
0.0838,0.0179
0.084,0.0181
0.0844,0.0184
0.0847,0.0187
0.085,0.019
0.0854,0.0193
0.0858,0.0195
0.0861,0.0197
0.0864,0.02
0.0867,0.0202
0.087,0.0205
0.0874,0.0207
0.0877,0.0211
0.0881,0.0215
0.0886,0.0218
0.089,0.0222
0.0895,0.0226
0.0898,0.0229
0.0901,0.023
0.0903,0.023
0.0905,0.0232
0.0907,0.0234
0.0909,0.0235
0.0912,0.0237
0.0915,0.0239
0.0919,0.0242
0.0923,0.0246
0.0928,0.025
0.0933,0.0255
0.0939,0.026
0.0943,0.0263
0.0945,0.0265
0.0947,0.0266
0.0949,0.0267
0.0951,0.0268
0.0954,0.027
0.0957,0.0272
0.096,0.0274
0.0964,0.0277
0.0967,0.028
0.0971,0.0283
0.0974,0.0286
0.0977,0.0288
0.098,0.029
0.0983,0.0292
0.0987,0.0294
0.099,0.0299
0.0994,0.0302
0.0998,0.0305
0.1003,0.0307
0.1007,0.0311
0.1011,0.0315
0.1014,0.0318
0.1017,0.0318
0.1019,0.0319
0.1021,0.032
0.1023,0.0322
0.1026,0.0325
0.1029,0.0327
0.1032,0.0329
0.1036,0.0332
0.104,0.0336
0.1046,0.0341
0.1051,0.0344
0.1056,0.0349
0.1059,0.0351
0.1061,0.0351
0.1063,0.0352
0.1065,0.0354
0.1067,0.0356
0.107,0.0358
0.1073,0.0361
0.1077,0.0362
0.108,0.0366
0.1084,0.0369
0.1087,0.037
0.109,0.0372
0.1094,0.0375
0.1097,0.0378
0.11,0.038
0.1104,0.0382
0.1107,0.0386
0.1111,0.0389
0.1116,0.0392
0.112,0.0396
0.1124,0.04
0.1128,0.0402
0.113,0.0403
0.1132,0.0404
0.1134,0.0406
0.1137,0.0407
0.1139,0.0409
0.1142,0.0409
0.1145,0.0412
0.1149,0.0415
0.1153,0.0418
0.1158,0.0423
0.1164,0.0427
0.1169,0.0432
0.1173,0.0434
0.1175,0.0436
0.1177,0.0437
0.1179,0.0438
0.1181,0.0438
0.1184,0.0439
0.1187,0.0441
0.119,0.0445
0.1193,0.0447
0.1197,0.045
0.1201,0.0453
0.1204,0.0454
0.1207,0.0456
0.121,0.0458
0.1214,0.0461
0.1217,0.0464
0.1221,0.0466
0.1224,0.0469
0.1229,0.0473
0.1233,0.0476
0.1238,0.048
0.1242,0.0483
0.1245,0.0485
0.1247,0.0486
0.1249,0.0486
0.1251,0.0486
0.1253,0.0488
0.1256,0.049
0.1259,0.0491
0.1262,0.0494
0.1266,0.0497
0.1271,0.0501
0.1276,0.0506
0.1282,0.0511
0.1286,0.0514
0.1289,0.0516
0.1291,0.0516
0.1293,0.0517
0.1295,0.0518
0.1298,0.052
0.13,0.0521
0.1304,0.0523
0.1307,0.0525
0.131,0.0528
0.1314,0.053
0.1317,0.0532
0.1321,0.0534
0.1324,0.0537
0.1327,0.0539
0.133,0.0541
0.1334,0.0543
0.1337,0.0545
0.1341,0.0548
0.1346,0.0552
0.1351,0.0556
0.1355,0.056
0.1358,0.0561
0.1361,0.0562
0.1363,0.0563
0.1364,0.0564
0.1367,0.0566
0.1369,0.0566
0.1372,0.0567
0.1375,0.0569
0.1379,0.0572
0.1383,0.0575
0.1388,0.058
0.1394,0.0584
0.1399,0.0588
0.1403,0.0591
0.1406,0.0592
0.1407,0.0592
0.1409,0.0592
0.1411,0.0593
0.1414,0.0595
0.1417,0.0596
0.142,0.0599
0.1424,0.0601
0.1427,0.0603
0.1431,0.0606
0.1434,0.0608
0.1437,0.061
0.144,0.0611
0.1444,0.0613
0.1447,0.0616
0.1451,0.0618
0.1454,0.0622
0.1458,0.0625
0.1463,0.0627
0.1467,0.063
0.1471,0.0632
0.1474,0.0634
0.1477,0.0635
0.1478,0.0635
0.1481,0.0636
0.1483,0.0637
0.1485,0.0639
0.1488,0.0641
0.1492,0.0644
0.1496,0.0647
0.1501,0.065
0.1506,0.0654
0.1512,0.0658
0.1516,0.0661
0.1519,0.0662
0.1521,0.0663
0.1523,0.0663
0.1525,0.0664
0.1527,0.0665
0.153,0.0667
0.1533,0.0668
0.1537,0.0669
0.154,0.0671
0.1544,0.0675
0.1547,0.0677
0.155,0.0678
0.1553,0.068
0.1557,0.0682
0.156,0.0684
0.1564,0.0686
0.1567,0.0689
0.1571,0.0691
0.1576,0.0694
0.158,0.0697
0.1585,0.07
0.1588,0.0703
0.1591,0.0704
0.1593,0.0704
0.1594,0.0705
0.1597,0.0706
0.1599,0.0707
0.1602,0.0708
0.1605,0.071
0.1609,0.0712
0.1613,0.0714
0.1618,0.0719
0.1624,0.0723
0.1629,0.0727
0.1632,0.0728
0.1635,0.0729
0.1637,0.073
0.1639,0.0729
0.1641,0.073
0.1644,0.0732
0.1647,0.0733
0.165,0.0734
0.1653,0.0737
0.1657,0.074
0.1661,0.0742
0.1664,0.0744
0.1667,0.0744
0.167,0.0746
0.1673,0.0749
0.1677,0.0751
0.168,0.0753
0.1684,0.0754
0.1688,0.0757
0.1693,0.076
0.1698,0.0764
0.1702,0.0766
0.1705,0.0767
0.1707,0.0767
0.1709,0.0767
0.1711,0.0767
0.1713,0.0768
0.1715,0.077
0.1718,0.0771
0.1722,0.0773
0.1726,0.0776
0.173,0.0779
0.1736,0.0784
0.1741,0.0788
0.1746,0.079
0.1749,0.079
0.1751,0.079
0.1753,0.0791
0.1755,0.0792
0.1758,0.0793
0.176,0.0794
0.1764,0.0796
0.1767,0.0798
0.1771,0.08
0.1774,0.0802
0.1777,0.0804
0.1781,0.0805
0.1784,0.0806
0.1787,0.0808
0.179,0.0809
0.1793,0.0811
0.1797,0.0812
0.1801,0.0815
0.1805,0.0818
0.181,0.0822
0.1815,0.0824
0.1818,0.0825
0.1821,0.0826
0.1823,0.0827
0.1824,0.0827
0.1827,0.0827
0.1829,0.0828
0.1832,0.0829
0.1835,0.0831
0.1839,0.0833
0.1843,0.0836
0.1849,0.0839
0.1854,0.0844
0.1859,0.0848
0.1863,0.0849
0.1865,0.0849
0.1867,0.0849
0.1869,0.0848
0.1871,0.0849
0.1874,0.085
0.1877,0.0851
0.188,0.0852
0.1884,0.0854
0.1887,0.0857
0.1891,0.0859
0.1894,0.0861
0.1897,0.0862
0.19,0.0863
0.1904,0.0865
0.1907,0.0866
0.191,0.0869
0.1914,0.087
0.1918,0.0872
0.1923,0.0876
0.1928,0.088
0.1932,0.0881
0.1935,0.0881
0.1937,0.0882
0.1939,0.0882
0.1941,0.0883
0.1943,0.0883
0.1946,0.0884
0.1949,0.0884
0.1952,0.0886
0.1956,0.0889
0.1961,0.0892
0.1967,0.0895
0.1972,0.09
0.1976,0.0902
0.1979,0.0902
0.1981,0.0901
0.1982,0.0901
0.1985,0.0901
0.1987,0.0902
0.199,0.0903
0.1993,0.0904
0.1997,0.0907
0.2,0.091
0.2004,0.0911
0.2008,0.0912
0.2011,0.0914
0.2014,0.0915
0.2017,0.0916
0.2021,0.0918
0.2024,0.0919
0.2028,0.0922
0.2032,0.0924
0.2036,0.0926
0.2041,0.0928
0.2045,0.093
0.2048,0.0931
0.205,0.093
0.2052,0.0931
0.2054,0.0932
0.2057,0.0934
0.2059,0.0934
0.2062,0.0933
0.2065,0.0934
0.2069,0.0936
0.2073,0.0939
0.2079,0.0943
0.2084,0.0946
0.2089,0.095
0.2093,0.0952
0.2095,0.0952
0.2097,0.0951
0.2099,0.095
0.2101,0.0951
0.2104,0.0951
0.2107,0.0952
0.211,0.0954
0.2114,0.0956
0.2117,0.0957
0.2121,0.0958
0.2124,0.0959
0.2127,0.0961
0.2131,0.0962
0.2134,0.0964
0.2137,0.0965
0.2141,0.0967
0.2145,0.0969
0.2149,0.0971
0.2153,0.0974
0.2158,0.0976
0.2161,0.0977
0.2164,0.0978
0.2166,0.0977
0.2168,0.0977
0.217,0.0977
0.2173,0.0978
0.2175,0.0979
0.2178,0.0979
0.2182,0.098
0.2186,0.0983
0.2191,0.0987
0.2197,0.0991
0.2202,0.0993
0.2206,0.0995
0.2209,0.0995
0.2211,0.0994
0.2212,0.0994
0.2215,0.0993
0.2217,0.0994
0.222,0.0995
0.2223,0.0997
0.2227,0.0999
0.223,0.1001
0.2234,0.1002
0.2237,0.1003
0.2241,0.1004
0.2244,0.1005
0.2247,0.1006
0.225,0.1006
0.2254,0.1008
0.2257,0.101
0.2261,0.1012
0.2266,0.1014
0.227,0.1016
0.2275,0.1018
0.2278,0.1019
0.228,0.1019
0.2282,0.1018
0.2284,0.1017
0.2286,0.1018
0.2289,0.1018
0.2292,0.102
0.2295,0.1021
0.2299,0.1023
0.2304,0.1025
0.2309,0.1028
0.2315,0.1031
0.232,0.1033
0.2323,0.1033
0.2325,0.1033
0.2326,0.1033
0.2328,0.1033
0.2331,0.1033
0.2333,0.1033
0.2337,0.1034
0.234,0.1036
0.2343,0.1038
0.2347,0.1038
0.235,0.1038
0.2354,0.104
0.2357,0.1041
0.236,0.1041
0.2363,0.1042
0.2367,0.1044
0.237,0.1045
0.2374,0.1047
0.2379,0.105
0.2384,0.1052
0.2388,0.1054
0.2392,0.1055
0.2394,0.1055
0.2396,0.1054
0.2398,0.1053
0.24,0.1053
0.2403,0.1053
0.2405,0.1053
0.2408,0.1054
0.2412,0.1055
0.2416,0.1058
0.2422,0.106
0.2427,0.1063
0.2432,0.1065
0.2436,0.1066
0.2438,0.1066
0.244,0.1064
0.2442,0.1064
0.2444,0.1065
0.2447,0.1065
0.245,0.1065
0.2454,0.1066
0.2457,0.1067
0.2461,0.1068
0.2464,0.1069
0.2468,0.107
0.2471,0.1071
0.2474,0.107
0.2477,0.1071
0.248,0.1072
0.2484,0.1073
0.2488,0.1074
0.2492,0.1075
0.2496,0.1077
0.2501,0.1079
0.2505,0.1079
0.2508,0.1079
0.251,0.1078
0.2512,0.1078
0.2514,0.1077
0.2516,0.1074
0.2519,0.1075
0.2522,0.1076
0.2525,0.1076
0.2529,0.1077
0.2534,0.1079
0.254,0.1082
0.2545,0.1084
0.255,0.1085
0.2552,0.1084
0.2554,0.1082
0.2556,0.108
0.2558,0.1079
0.2561,0.1079
0.2564,0.1079
0.2567,0.1079
0.257,0.1079
0.2574,0.108
0.2578,0.108
0.2581,0.108
0.2584,0.108
0.2587,0.108
0.259,0.1079
0.2594,0.1079
0.2597,0.1079
0.2601,0.108
0.2605,0.1081
0.2609,0.1081
0.2614,0.1082
0.2618,0.1083
0.2622,0.1082
0.2624,0.1079
0.2626,0.1078
0.2628,0.1076
0.263,0.1075
0.2633,0.1074
0.2635,0.1072
0.2639,0.1072
0.2642,0.107
0.2647,0.107
0.2652,0.1071
0.2658,0.1072
0.2663,0.1071
0.2666,0.1071
0.2668,0.1068
0.267,0.1066
0.2672,0.1065
0.2674,0.1064
0.2677,0.1064
0.268,0.1065
0.2683,0.1067
0.2687,0.1068
0.269,0.1069
0.2694,0.107
0.2697,0.1072
0.2701,0.1072
0.2704,0.1072
0.2707,0.1074
0.271,0.1075
0.2714,0.1076
0.2718,0.1077
0.2722,0.1079
0.2726,0.1081
0.2731,0.1083
0.2735,0.1083
0.2738,0.1083
0.274,0.1084
0.2742,0.1083
0.2744,0.1082
0.2746,0.1081
0.2749,0.1081
0.2752,0.1082
0.2755,0.1084
0.2759,0.1085
0.2764,0.1087
0.277,0.109
0.2775,0.1093
0.2779,0.1094
0.2782,0.1095
0.2784,0.1093
0.2786,0.1092
0.2788,0.1093
0.2791,0.1093
0.2794,0.1094
0.2797,0.1095
0.28,0.1095
0.2804,0.1096
0.2807,0.1097
0.2811,0.1098
0.2814,0.11
0.2817,0.1101
0.282,0.1102
0.2824,0.1103
0.2827,0.1104
0.2831,0.1105
0.2835,0.1107
0.2839,0.1109
0.2844,0.1111
0.2848,0.1113
0.2851,0.1114
0.2853,0.1114
0.2855,0.1112
0.2857,0.1111
0.286,0.1111
0.2862,0.1112
0.2865,0.1113
0.2868,0.1115
0.2872,0.1117
0.2877,0.1119
0.2882,0.1122
0.2888,0.1125
0.2892,0.1126
0.2896,0.1127
0.2898,0.1126
0.29,0.1126
0.2902,0.1126
0.2904,0.1126
0.2907,0.1127
0.291,0.1129
0.2914,0.1129
0.2917,0.1129
0.2921,0.1132
0.2924,0.1133
0.2927,0.1134
0.293,0.1134
0.2933,0.1134
0.2936,0.1135
0.294,0.1137
0.2944,0.1139
0.2947,0.114
0.2952,0.1143
0.2957,0.1145
0.2961,0.1147
0.2965,0.1148
0.2968,0.1148
0.2969,0.1148
0.2971,0.1147
0.2973,0.1146
0.2976,0.1147
0.2978,0.1148
0.2982,0.1148
0.2985,0.115
0.299,0.1153
0.2995,0.1155
0.3001,0.1158
0.3006,0.116
0.3009,0.1162
0.3012,0.1161
0.3013,0.1161
0.3015,0.116
0.3018,0.116
0.3021,0.116
0.3024,0.1161
0.3027,0.1162
0.3031,0.1163
0.3034,0.1164
0.3037,0.1166
0.3041,0.1166
0.3044,0.1167
0.3047,0.1168
0.305,0.1168
0.3053,0.117
0.3057,0.1172
0.3061,0.1173
0.3065,0.1174
0.307,0.1177
0.3074,0.118
0.3079,0.1181
0.3082,0.1181
0.3084,0.118
0.3085,0.1179
0.3087,0.1179
0.309,0.1178
0.3092,0.1179
0.3095,0.1179
0.3099,0.1179
0.3103,0.1179
0.3108,0.118
0.3113,0.118
0.3119,0.1177
0.3123,0.1166
0.3126,0.1134
0.3127,0.1109
0.3129,0.1101
0.3132,0.1104
0.3134,0.1107
0.3137,0.1111
0.314,0.1113
0.3144,0.1116
0.3147,0.1119
0.3151,0.1122
0.3154,0.1124
0.3157,0.1126
0.3161,0.1129
0.3164,0.1132
0.3167,0.1136
0.317,0.1139
0.3174,0.1142
0.3178,0.1145
0.3182,0.1148
0.3187,0.1151
0.3191,0.1155
0.3195,0.1158
0.3197,0.1159
0.3199,0.116
0.3201,0.1161
0.3203,0.1163
0.3206,0.1164
0.3209,0.1166
0.3212,0.1169
0.3216,0.1172
0.322,0.1176
0.3225,0.118
0.3231,0.1184
0.3236,0.1187
0.3239,0.1189
0.3242,0.1189
0.3243,0.119
0.3245,0.1192
0.3248,0.1194
0.325,0.1195
0.3253,0.1196
0.3257,0.1198
0.326,0.1201
0.3264,0.1203
0.3267,0.1206
0.3271,0.1208
0.3274,0.121
0.3277,0.1212
0.328,0.1214
0.3284,0.1216
0.3287,0.1219
0.3291,0.122
0.3295,0.1223
0.33,0.1228
0.3304,0.1232
0.3308,0.1234
0.3311,0.1235
0.3313,0.1234
0.3315,0.1235
0.3317,0.1235
0.3319,0.1236
0.3322,0.1238
0.3325,0.1239
0.3328,0.1242
0.3332,0.1245
0.3337,0.1248
0.3343,0.1251
0.3348,0.1255
0.3353,0.1259
0.3355,0.126
0.3357,0.126
0.3359,0.1261
0.3361,0.1262
0.3364,0.1264
0.3367,0.1265
0.337,0.1266
0.3373,0.1268
0.3377,0.1269
0.3381,0.1272
0.3384,0.1274
0.3387,0.1276
0.339,0.1277
0.3393,0.1278
0.3397,0.1281
0.34,0.1282
0.3404,0.1284
0.3408,0.1286
0.3413,0.129
0.3417,0.1292
0.3421,0.1295
0.3425,0.1297
0.3427,0.1297
0.3429,0.1297
0.3431,0.1298
0.3433,0.1299
0.3436,0.1299
0.3439,0.1301
0.3442,0.1303
0.3445,0.1306
0.345,0.1308
0.3455,0.1312
0.3461,0.1316
0.3466,0.132
0.3469,0.132
0.3471,0.1321
0.3473,0.1322
0.3475,0.1321
0.3478,0.1322
0.348,0.1323
0.3484,0.1325
0.3487,0.1327
0.349,0.1328
0.3494,0.133
0.3497,0.1331
0.3501,0.1333
0.3504,0.1335
0.3507,0.1336
0.351,0.1338
0.3513,0.134
0.3517,0.1342
0.3521,0.1344
0.3525,0.1347
0.353,0.135
0.3535,0.1352
0.3538,0.1354
0.3541,0.1355
0.3543,0.1355
0.3545,0.1355
0.3547,0.1355
0.3549,0.1356
0.3552,0.1358
0.3555,0.1359
0.3559,0.1361
0.3563,0.1363
0.3568,0.1366
0.3573,0.137
0.3579,0.1374
0.3583,0.1376
0.3586,0.1378
0.3587,0.1377
0.3589,0.1377
0.3591,0.1378
0.3594,0.1379
0.3597,0.138
0.36,0.1382
0.3603,0.1384
0.3607,0.1385
0.361,0.1385
0.3614,0.1387
0.3617,0.139
0.362,0.1391
0.3623,0.1393
0.3627,0.1394
0.363,0.1396
0.3634,0.1398
0.3638,0.14
0.3643,0.1402
0.3647,0.1406
0.3652,0.1409
0.3655,0.1411
0.3657,0.1411
0.3659,0.141
0.3661,0.1411
0.3663,0.1411
0.3666,0.1411
0.3669,0.1413
0.3672,0.1414
0.3676,0.1417
0.368,0.142
0.3686,0.1424
0.3691,0.1427
0.3696,0.143
0.3699,0.1431
0.3701,0.1431
0.3703,0.1431
0.3705,0.1431
0.3708,0.1432
0.371,0.1433
0.3714,0.1434
0.3717,0.1436
0.372,0.1438
0.3724,0.1439
0.3727,0.1441
0.373,0.1443
0.3734,0.1445
0.3737,0.1448
0.374,0.1448
0.3744,0.145
0.3747,0.1451
0.3751,0.1454
0.3756,0.1456
0.376,0.1459
0.3765,0.1462
0.3769,0.1464
0.3771,0.1465
0.3773,0.1464
0.3775,0.1464
0.3777,0.1464
0.3779,0.1464
0.3782,0.1465
0.3785,0.1467
0.3789,0.1469
0.3793,0.1473
0.3797,0.1476
0.3803,0.148
0.3808,0.1484
0.3813,0.1486
0.3816,0.1487
0.3818,0.1486
0.3819,0.1485
0.3822,0.1486
0.3824,0.1487
0.3827,0.1487
0.383,0.1488
0.3834,0.149
0.3837,0.1494
0.3841,0.1495
0.3844,0.1497
0.3847,0.1497
0.385,0.1498
0.3853,0.15
0.3857,0.1502
0.386,0.1504
0.3864,0.1506
0.3868,0.1508
0.3873,0.1511
0.3877,0.1514
0.3882,0.1516
0.3885,0.1518
0.3887,0.1519
0.3889,0.1519
0.3891,0.1518
0.3893,0.1518
0.3895,0.1519
0.3898,0.152
0.3902,0.1522
0.3906,0.1525
0.391,0.1528
0.3916,0.1531
0.3921,0.1535
0.3926,0.1537
0.3929,0.1539
0.3931,0.154
0.3933,0.154
0.3935,0.154
0.3938,0.154
0.3941,0.1541
0.3944,0.1542
0.3947,0.1544
0.395,0.1546
0.3954,0.1548
0.3957,0.1549
0.396,0.155
0.3963,0.1551
0.3966,0.1554
0.397,0.1555
0.3973,0.1557
0.3977,0.1559
0.3981,0.1561
0.3986,0.1563
0.399,0.1565
0.3995,0.1568
0.3998,0.1571
0.4001,0.1571
0.4003,0.1573
0.4005,0.1572
0.4007,0.1572
0.4009,0.1573
0.4012,0.1575
0.4015,0.1576
0.4019,0.1578
0.4023,0.158
0.4028,0.1584
0.4034,0.1587
0.4039,0.1591
0.4043,0.1592
0.4045,0.1592
0.4047,0.1592
0.4049,0.1592
0.4051,0.1592
0.4054,0.1593
0.4057,0.1595
0.406,0.1597
0.4063,0.16
0.4067,0.1602
0.4071,0.1602
0.4074,0.1603
0.4077,0.1604
0.408,0.1606
0.4083,0.1607
0.4087,0.1609
0.409,0.1611
0.4094,0.1612
0.4098,0.1615
0.4103,0.1618
0.4107,0.1621
0.4112,0.1623
0.4115,0.1624
0.4117,0.1624
0.4119,0.1624
0.4121,0.1625
0.4123,0.1624
0.4126,0.1626
0.4129,0.1627
0.4132,0.1629
0.4136,0.1631
0.414,0.1634
0.4145,0.1637
0.4151,0.164
0.4156,0.1644
0.4159,0.1645
0.4161,0.1644
0.4163,0.1644
0.4165,0.1644
0.4168,0.1646
0.417,0.1646
0.4174,0.1647
0.4177,0.165
0.418,0.1651
0.4184,0.1653
0.4187,0.1654
0.419,0.1655
0.4194,0.1657
0.4197,0.1659
0.42,0.166
0.4204,0.1661
0.4207,0.1664
0.4211,0.1666
0.4215,0.1668
0.422,0.1669
0.4224,0.1672
0.4228,0.1674
0.4231,0.1675
0.4233,0.1675
0.4235,0.1675
0.4237,0.1675
0.4239,0.1676
0.4242,0.1677
0.4245,0.1679
0.4249,0.1681
0.4253,0.1683
0.4258,0.1686
0.4264,0.169
0.4269,0.1693
0.4273,0.1695
0.4275,0.1695
0.4277,0.1696
0.4279,0.1695
0.4281,0.1695
0.4284,0.1695
0.4287,0.1697
0.429,0.1699
0.4294,0.1701
0.4297,0.1702
0.4301,0.1703
0.4304,0.1704
0.4307,0.1705
0.431,0.1707
0.4314,0.171
0.4317,0.1711
0.4321,0.1712
0.4324,0.1715
0.4328,0.1717
0.4333,0.1718
0.4338,0.1721
0.4342,0.1724
0.4345,0.1724
0.4347,0.1724
0.4349,0.1724
0.4351,0.1725
0.4353,0.1725
0.4356,0.1726
0.4359,0.1727
0.4362,0.1729
0.4366,0.1731
0.4371,0.1734
0.4376,0.1738
0.4382,0.174
0.4386,0.1742
0.4389,0.1743
0.4391,0.1743
0.4393,0.1743
0.4395,0.1744
0.4397,0.1744
0.44,0.1745
0.4403,0.1746
0.4407,0.1748
0.441,0.1749
0.4414,0.175
0.4418,0.1752
0.4421,0.1754
0.4424,0.1756
0.4427,0.1757
0.443,0.1758
0.4434,0.176
0.4438,0.1762
0.4442,0.1764
0.4446,0.1766
0.4451,0.1768
0.4455,0.1771
0.4458,0.1772
0.4461,0.1772
0.4463,0.1772
0.4465,0.1772
0.4467,0.1772
0.4469,0.1773
0.4472,0.1774
0.4475,0.1775
0.4479,0.1777
0.4483,0.178
0.4488,0.1783
0.4494,0.1786
0.4499,0.1789
0.4503,0.179
0.4505,0.179
0.4507,0.1789
0.4509,0.179
0.4511,0.1791
0.4514,0.1792
0.4517,0.1793
0.452,0.1795
0.4524,0.1796
0.4527,0.1798
0.4531,0.1799
0.4534,0.18
0.4537,0.1802
0.454,0.1803
0.4544,0.1804
0.4547,0.1805
0.455,0.1807
0.4554,0.1809
0.4559,0.1811
0.4563,0.1814
0.4568,0.1817
0.4572,0.1818
0.4574,0.1818
0.4576,0.1818
0.4578,0.1818
0.458,0.1819
0.4583,0.1819
0.4585,0.1819
0.4588,0.182
0.4592,0.1822
0.4596,0.1824
0.4601,0.1827
0.4606,0.1831
0.4612,0.1835
0.4616,0.1837
0.4619,0.1837
0.4621,0.1836
0.4623,0.1837
0.4625,0.1837
0.4627,0.1838
0.463,0.1839
0.4633,0.184
0.4637,0.1841
0.464,0.1843
0.4644,0.1844
0.4647,0.1846
0.4651,0.1847
0.4654,0.1848
0.4657,0.185
0.466,0.1851
0.4664,0.1851
0.4667,0.1853
0.4671,0.1855
0.4675,0.1857
0.468,0.1861
0.4684,0.1863
0.4688,0.1864
0.4691,0.1864
0.4693,0.1865
0.4694,0.1864
0.4697,0.1864
0.4699,0.1864
0.4702,0.1866
0.4705,0.1868
0.4709,0.187
0.4714,0.1872
0.4719,0.1875
0.4724,0.1879
0.4729,0.1881
0.4733,0.1883
0.4735,0.1882
0.4737,0.1882
0.4739,0.1883
0.4741,0.1883
0.4744,0.1883
0.4747,0.1885
0.475,0.1886
0.4753,0.1887
0.4757,0.1888
0.476,0.1889
0.4764,0.1891
0.4767,0.1892
0.477,0.1894
0.4774,0.1894
0.4777,0.1897
0.4781,0.1898
0.4784,0.19
0.4789,0.1902
0.4793,0.1905
0.4798,0.1908
0.4802,0.1909
0.4805,0.1909
0.4806,0.1908
0.4808,0.1907
0.481,0.1907
0.4813,0.1909
0.4815,0.191
0.4819,0.1911
0.4822,0.1912
0.4827,0.1914
0.4831,0.1918
0.4837,0.1921
0.4842,0.1924
0.4846,0.1926
0.4849,0.1926
0.485,0.1926
0.4852,0.1926
0.4855,0.1926
0.4857,0.1927
0.486,0.1928
0.4864,0.1929
0.4867,0.193
0.4871,0.1932
0.4874,0.1934
0.4878,0.1934
0.4881,0.1936
0.4884,0.1937
0.4887,0.1937
0.489,0.1939
0.4894,0.194
0.4898,0.1942
0.4902,0.1944
0.4906,0.1947
0.4911,0.195
0.4915,0.1952
0.4918,0.1953
0.4921,0.1952
0.4922,0.1951
0.4924,0.1952
0.4926,0.1952
0.4929,0.1953
0.4932,0.1953
0.4935,0.1954
0.4939,0.1956
0.4944,0.1959
0.4949,0.1963
0.4955,0.1966
0.4959,0.1968
0.4963,0.1969
0.4965,0.1969
0.4966,0.1968
0.4969,0.1968
0.4971,0.1969
0.4974,0.197
0.4977,0.1971
0.498,0.1972
0.4984,0.1973
0.4988,0.1975
0.4991,0.1977
0.4994,0.1978
0.4997,0.1978
0.5,0.1979
0.5004,0.1981
0.5007,0.1983
0.501,0.1984
0.5014,0.1986
0.5019,0.1988
0.5024,0.199
0.5028,0.1991
0.5032,0.1993
0.5034,0.1994
0.5036,0.1995
0.5038,0.1994
0.504,0.1994
0.5043,0.1994
0.5045,0.1994
0.5049,0.1996
0.5052,0.1998
0.5056,0.2
0.5061,0.2003
0.5067,0.2006
0.5072,0.201
0.5076,0.2013
0.5079,0.2011
0.508,0.201
0.5082,0.201
0.5084,0.201
0.5087,0.2011
0.509,0.2013
0.5093,0.2014
0.5097,0.2015
0.51,0.2016
0.5104,0.2018
0.5107,0.2019
0.511,0.202
0.5114,0.202
0.5117,0.2022
0.512,0.2023
0.5124,0.2024
0.5127,0.2025
0.5131,0.2027
0.5136,0.203
0.5141,0.2033
0.5145,0.2036
0.5148,0.2036
0.515,0.2036
0.5152,0.2035
0.5154,0.2035
0.5156,0.2035
0.5159,0.2037
0.5162,0.2037
0.5165,0.2038
0.5169,0.2039
0.5174,0.2042
0.5179,0.2045
0.5185,0.2049
0.5189,0.205
0.5192,0.2051
0.5194,0.2051
0.5196,0.2051
0.5198,0.2051
0.5201,0.2051
0.5204,0.2052
0.5207,0.2053
0.521,0.2054
0.5214,0.2055
0.5217,0.2057
0.5221,0.2058
0.5224,0.206
0.5227,0.2061
0.523,0.2062
0.5233,0.2064
0.5237,0.2065
0.5241,0.2066
0.5245,0.2068
0.5249,0.2069
0.5253,0.2072
0.5258,0.2074
0.5261,0.2075
0.5264,0.2075
0.5266,0.2074
0.5268,0.2074
0.527,0.2074
0.5272,0.2075
0.5275,0.2076
0.5279,0.2077
0.5282,0.2079
0.5287,0.2081
0.5292,0.2085
0.5297,0.2088
0.5302,0.209
0.5306,0.2092
0.5308,0.2091
0.531,0.209
0.5312,0.2091
0.5315,0.2091
0.5317,0.2092
0.5321,0.2093
0.5324,0.2094
0.5327,0.2096
0.5331,0.2097
0.5334,0.2098
0.5338,0.2099
0.534,0.21
0.5343,0.2101
0.5346,0.2102
0.535,0.2103
0.5354,0.2105
0.5358,0.2107
0.5362,0.2109
0.5366,0.211
0.5371,0.2112
0.5375,0.2114
0.5378,0.2115
0.538,0.2115
0.5382,0.2115
0.5384,0.2114
0.5386,0.2114
0.5389,0.2116
0.5392,0.2117
0.5395,0.2117
0.54,0.212
0.5405,0.2123
0.541,0.2126
0.5416,0.2129
0.5419,0.2132
0.5422,0.2131
0.5424,0.213
0.5426,0.213
0.5428,0.2129
0.5431,0.213
0.5434,0.2132
0.5437,0.2133
0.544,0.2133
0.5444,0.2135
0.5447,0.2137
0.5451,0.2138
0.5454,0.2139
0.5457,0.214
0.546,0.214
0.5463,0.2141
0.5467,0.2142
0.5471,0.2144
0.5475,0.2146
0.5479,0.2147
0.5484,0.2151
0.5489,0.2153
0.5492,0.2153
0.5494,0.2153
0.5496,0.2153
0.5498,0.2153
0.55,0.2153
0.5502,0.2153
0.5505,0.2154
0.5509,0.2156
0.5513,0.2158
0.5517,0.216
0.5523,0.2163
0.5528,0.2167
0.5533,0.2169
0.5536,0.217
0.5538,0.2169
0.5539,0.2168
0.5542,0.2168
0.5544,0.2168
0.5547,0.2169
0.555,0.2171
0.5554,0.2172
0.5557,0.2173
0.5561,0.2174
0.5564,0.2175
0.5567,0.2176
0.557,0.2178
0.5574,0.2179
0.5577,0.218
0.558,0.2181
0.5584,0.2183
0.5588,0.2185
0.5592,0.2186
0.5597,0.2189
0.5601,0.2192
0.5605,0.2192
0.5608,0.2192
0.561,0.2192
0.5612,0.2192
0.5614,0.2192
0.5616,0.2192
0.5619,0.2192
0.5622,0.2193
0.5626,0.2196
0.563,0.2198
0.5635,0.22
0.5641,0.2203
0.5646,0.2206
0.565,0.2207
0.5652,0.2207
0.5654,0.2207
0.5656,0.2207
0.5658,0.2207
0.5661,0.2207
0.5664,0.2208
0.5667,0.2209
0.567,0.2211
0.5674,0.2212
0.5678,0.2213
0.5681,0.2214
0.5684,0.2215
0.5687,0.2215
0.569,0.2216
0.5693,0.2217
0.5697,0.2218
0.5701,0.222
0.5705,0.2223
0.571,0.2226
0.5715,0.2229
0.5719,0.223
0.5722,0.223
0.5724,0.223
0.5725,0.2229
0.5727,0.2228
0.573,0.2229
0.5732,0.2229
0.5735,0.223
0.5738,0.2231
0.5742,0.2233
0.5747,0.2235
0.5752,0.2239
0.5758,0.2242
0.5763,0.2245
0.5766,0.2246
0.5768,0.2245
0.577,0.2244
0.5772,0.2244
0.5774,0.2245
0.5777,0.2246
0.578,0.2246
0.5783,0.2247
0.5787,0.2249
0.5791,0.225
0.5794,0.2252
0.5797,0.2252
0.58,0.2253
0.5803,0.2253
0.5807,0.2254
0.581,0.2256
0.5814,0.2258
0.5818,0.2258
0.5822,0.2261
0.5827,0.2263
0.5831,0.2265
0.5835,0.2266
0.5837,0.2267
0.5839,0.2265
0.5841,0.2265
0.5843,0.2265
0.5846,0.2266
0.5849,0.2267
0.5852,0.2268
0.5855,0.227
0.586,0.2272
0.5865,0.2275
0.587,0.2278
0.5876,0.228
0.5879,0.2281
0.5882,0.2281
0.5883,0.228
0.5885,0.2279
0.5888,0.2279
0.589,0.228
0.5894,0.2282
0.5897,0.2283
0.59,0.2284
0.5904,0.2286
0.5907,0.2287
0.5911,0.2289
0.5914,0.2289
0.5917,0.2289
0.592,0.229
0.5923,0.2293
0.5927,0.2294
0.5931,0.2295
0.5935,0.2297
0.594,0.2299
0.5944,0.2302
0.5948,0.2303
0.5951,0.2303
0.5953,0.2302
0.5955,0.2302
0.5957,0.2303
0.596,0.2303
0.5962,0.2303
0.5965,0.2303
0.5969,0.2305
0.5973,0.2307
0.5977,0.2309
0.5983,0.2312
0.5988,0.2316
0.5993,0.2318
0.5996,0.2318
0.5998,0.2318
0.5999,0.2317
0.6002,0.2316
0.6004,0.2317
0.6007,0.2318
0.601,0.2319
0.6013,0.232
0.6017,0.2322
0.602,0.2322
0.6024,0.2324
0.6027,0.2325
0.603,0.2325
0.6033,0.2326
0.6037,0.2327
0.604,0.2329
0.6044,0.2331
0.6048,0.2333
0.6052,0.2334
0.6057,0.2337
0.6061,0.2338
0.6065,0.2339
0.6067,0.2339
0.6069,0.2339
0.6071,0.2339
0.6073,0.2338
0.6076,0.2339
0.6079,0.2341
0.6082,0.2341
0.6086,0.2342
0.609,0.2344
0.6096,0.2348
0.6101,0.2352
0.6106,0.2354
0.611,0.2354
0.6112,0.2354
0.6113,0.2353
0.6115,0.2352
0.6118,0.2352
0.6121,0.2354
0.6124,0.2355
0.6127,0.2355
0.613,0.2356
0.6134,0.2357
0.6137,0.2358
0.614,0.2359
0.6143,0.2361
0.6147,0.2363
0.615,0.2363
0.6154,0.2363
0.6157,0.2365
0.6161,0.2367
0.6165,0.237
0.617,0.2372
0.6175,0.2374
0.6179,0.2375
0.6182,0.2375
0.6184,0.2374
0.6185,0.2374
0.6187,0.2375
0.619,0.2374
0.6192,0.2375
0.6195,0.2376
0.6199,0.2378
0.6203,0.2379
0.6207,0.2381
0.6213,0.2384
0.6218,0.2388
0.6223,0.239
0.6226,0.239
0.6228,0.2389
0.623,0.2389
0.6232,0.2389
0.6234,0.2389
0.6237,0.2389
0.624,0.2391
0.6244,0.2391
0.6247,0.2393
0.6251,0.2395
0.6254,0.2395
0.6257,0.2396
0.626,0.2397
0.6264,0.2399
0.6267,0.2399
0.627,0.24
0.6274,0.2402
0.6278,0.2404
0.6283,0.2407
0.6287,0.2408
0.6292,0.241
0.6295,0.2411
0.6297,0.2411
0.6299,0.241
0.6301,0.2409
0.6303,0.2409
0.6306,0.241
0.6308,0.2411
0.6312,0.2413
0.6316,0.2414
0.632,0.2416
0.6325,0.2418
0.6331,0.2421
0.6336,0.2424
0.6339,0.2426
0.6342,0.2425
0.6343,0.2425
0.6345,0.2425
0.6348,0.2425
0.6351,0.2425
0.6354,0.2425
0.6357,0.2427
0.636,0.2429
0.6364,0.243
0.6367,0.2429
0.637,0.2431
0.6373,0.2431
0.6376,0.2432
0.638,0.2433
0.6383,0.2435
0.6387,0.2437
0.6391,0.2439
0.6395,0.2441
0.64,0.2443
0.6405,0.2444
0.6408,0.2445
0.6411,0.2446
0.6413,0.2447
0.6415,0.2446
0.6417,0.2446
0.642,0.2446
0.6422,0.2445
0.6425,0.2446
0.6429,0.2448
0.6433,0.245
0.6437,0.2454
0.6443,0.2456
0.6448,0.2459
0.6452,0.246
0.6455,0.246
0.6457,0.246
0.6459,0.2459
0.6461,0.246
0.6464,0.246
0.6467,0.2461
0.647,0.2462
0.6473,0.2463
0.6477,0.2463
0.648,0.2464
0.6484,0.2466
0.6487,0.2467
0.649,0.2468
0.6493,0.2469
0.6497,0.247
0.65,0.2472
0.6504,0.2474
0.6508,0.2476
0.6512,0.2478
0.6517,0.248
0.6521,0.2482
0.6525,0.2482
0.6527,0.2483
0.6529,0.2482
0.6531,0.2481
0.6533,0.248
0.6536,0.2481
0.6539,0.2482
0.6542,0.2483
0.6546,0.2484
0.655,0.2486
0.6555,0.2489
0.6561,0.2493
0.6566,0.2495
0.6569,0.2496
0.6572,0.2496
0.6573,0.2496
0.6575,0.2496
0.6578,0.2495
0.6581,0.2495
0.6584,0.2496
0.6587,0.2498
0.659,0.2499
0.6594,0.25
0.6597,0.2501
0.6601,0.2502
0.6604,0.2503
0.6607,0.2504
0.661,0.2504
0.6614,0.2506
0.6617,0.2508
0.6621,0.2509
0.6625,0.251
0.663,0.2513
0.6634,0.2516
0.6638,0.2517
0.6641,0.2517
0.6643,0.2517
0.6645,0.2517
0.6647,0.2516
0.6649,0.2516
0.6652,0.2516
0.6655,0.2518
0.6659,0.2518
0.6663,0.252
0.6668,0.2522
0.6674,0.2526
0.6679,0.2529
0.6683,0.253
0.6686,0.2531
0.6687,0.2531
0.6689,0.2531
0.6692,0.2531
0.6694,0.2531
0.6697,0.2531
0.67,0.2532
0.6703,0.2533
0.6707,0.2534
0.671,0.2536
0.6714,0.2537
0.6717,0.2538
0.672,0.2539
0.6724,0.254
0.6727,0.254
0.6731,0.2541
0.6734,0.2543
0.6738,0.2544
0.6743,0.2546
0.6747,0.255
0.6752,0.2552
0.6755,0.2552
0.6757,0.2551
0.6759,0.255
0.6761,0.255
0.6763,0.255
0.6766,0.2551
0.6769,0.2551
0.6772,0.2553
0.6776,0.2556
0.678,0.2558
0.6786,0.256
0.6791,0.2562
0.6796,0.2565
0.6799,0.2566
0.6801,0.2566
0.6803,0.2565
0.6805,0.2564
0.6808,0.2565
0.681,0.2566
0.6813,0.2566
0.6817,0.2567
0.682,0.2569
0.6824,0.257
0.6827,0.2571
0.6831,0.2572
0.6834,0.2573
0.6837,0.2574
0.684,0.2574
0.6844,0.2575
0.6848,0.2577
0.6851,0.2579
0.6856,0.2581
0.686,0.2583
0.6865,0.2585
0.6868,0.2587
0.6871,0.2587
0.6873,0.2586
0.6875,0.2586
0.6877,0.2586
0.6879,0.2585
0.6882,0.2586
0.6885,0.2587
0.6889,0.2589
0.6893,0.259
0.6898,0.2593
0.6903,0.2596
0.6909,0.2599
0.6913,0.2601
0.6915,0.2601
0.6917,0.26
0.6919,0.26
0.6921,0.26
0.6924,0.26
0.6927,0.26
0.693,0.2601
0.6933,0.2602
0.6937,0.2604
0.694,0.2605
0.6944,0.2607
0.6947,0.2607
0.695,0.2608
0.6954,0.2609
0.6957,0.261
0.6961,0.2612
0.6964,0.2613
0.6968,0.2615
0.6973,0.2617
0.6977,0.262
0.6982,0.2622
0.6985,0.2622
0.6987,0.262
0.6989,0.262
0.6991,0.2621
0.6993,0.2621
0.6996,0.2622
0.6999,0.2621
0.7002,0.2623
0.7006,0.2624
0.7011,0.2626
0.7016,0.2629
0.7021,0.2632
0.7026,0.2635
0.7029,0.2636
0.7031,0.2636
0.7033,0.2635
0.7035,0.2634
0.7037,0.2634
0.704,0.2635
0.7044,0.2636
0.7047,0.2637
0.705,0.2638
0.7054,0.2639
0.7057,0.2641
0.7061,0.2642
0.7064,0.2642
0.7067,0.2643
0.707,0.2645
0.7074,0.2646
0.7077,0.2646
0.7081,0.2648
0.7085,0.265
0.709,0.2651
0.7095,0.2653
0.7098,0.2655
0.7101,0.2656
0.7103,0.2655
0.7105,0.2654
0.7107,0.2655
0.7109,0.2655
0.7112,0.2655
0.7115,0.2657
0.7119,0.2659
0.7123,0.2662
0.7128,0.2663
0.7134,0.2666
0.7139,0.2669
0.7143,0.267
0.7145,0.2671
0.7147,0.267
0.7149,0.267
0.7151,0.267
0.7154,0.267
0.7157,0.267
0.716,0.2671
0.7163,0.2672
0.7167,0.2673
0.717,0.2674
0.7174,0.2676
0.7177,0.2677
0.718,0.2678
0.7184,0.2679
0.7187,0.2681
0.7191,0.2682
0.7194,0.2683
0.7198,0.2684
0.7203,0.2687
0.7208,0.2689
0.7212,0.269
0.7215,0.2691
0.7217,0.2691
0.7219,0.2691
0.7221,0.269
0.7223,0.269
0.7225,0.2691
0.7229,0.2691
0.7232,0.2692
0.7236,0.2694
0.7241,0.2696
0.7247,0.2699
0.7252,0.2702
0.7256,0.2704
0.7259,0.2705
0.7261,0.2704
0.7263,0.2703
0.7265,0.2704
0.7267,0.2705
0.727,0.2705
0.7274,0.2706
0.7277,0.2707
0.728,0.2709
0.7284,0.271
0.7287,0.271
0.7291,0.2711
0.7294,0.2712
0.7297,0.2713
0.73,0.2714
0.7304,0.2715
0.7308,0.2717
0.7311,0.2718
0.7316,0.272
0.7321,0.2722
0.7325,0.2725
0.7329,0.2726
0.7331,0.2725
0.7333,0.2725
0.7335,0.2724
0.7337,0.2724
0.7339,0.2725
0.7342,0.2726
0.7345,0.2726
0.7349,0.2728
0.7353,0.2731
0.7359,0.2734
0.7364,0.2738
0.7369,0.274
0.7373,0.274
0.7375,0.274
0.7377,0.2739
0.7379,0.2739
0.7381,0.2739
0.7384,0.274
0.7387,0.274
0.739,0.274
0.7394,0.2742
0.7397,0.2745
0.7401,0.2745
0.7404,0.2746
0.7407,0.2746
0.741,0.2748
0.7413,0.2749
0.7417,0.275
0.7421,0.2752
0.7425,0.2753
0.7429,0.2755
0.7434,0.2757
0.7438,0.276
0.7442,0.2761
0.7445,0.2761
0.7447,0.2759
0.7448,0.2759
0.7451,0.2759
0.7453,0.276
0.7456,0.276
0.7459,0.2762
0.7462,0.2763
0.7466,0.2765
0.7471,0.2766
0.7476,0.277
0.7482,0.2774
0.7486,0.2775
0.7489,0.2775
0.7491,0.2775
0.7493,0.2774
0.7495,0.2774
0.7497,0.2775
0.75,0.2776
0.7504,0.2777
0.7507,0.2777
0.7511,0.2779
0.7514,0.278
0.7518,0.2781
0.7521,0.2782
0.7524,0.2782
0.7527,0.2783
0.753,0.2784
0.7534,0.2785
0.7537,0.2787
0.7541,0.2788
0.7546,0.2791
0.7551,0.2792
0.7555,0.2794
0.7558,0.2796
0.756,0.2795
0.7562,0.2795
0.7564,0.2795
0.7566,0.2795
0.7569,0.2795
0.7572,0.2795
0.7575,0.2797
0.7579,0.2799
0.7583,0.2801
0.7589,0.2804
0.7594,0.2807
0.7599,0.281
0.7603,0.281
0.7605,0.281
0.7607,0.281
0.7609,0.2808
0.7611,0.2809
0.7614,0.2809
0.7617,0.281
0.762,0.2811
0.7624,0.2812
0.7627,0.2814
0.7631,0.2816
0.7634,0.2817
0.7637,0.2818
0.764,0.2819
0.7643,0.2819
0.7647,0.282
0.765,0.2821
0.7654,0.2823
0.7658,0.2825
0.7663,0.2827
0.7668,0.2829
0.7671,0.2831
0.7674,0.283
0.7676,0.2831
0.7678,0.2831
0.768,0.283
0.7683,0.283
0.7685,0.283
0.7689,0.2833
0.7692,0.2834
0.7697,0.2835
0.7702,0.2839
0.7707,0.2842
0.7712,0.2845
0.7716,0.2846
0.7718,0.2845
0.772,0.2844
0.7722,0.2843
0.7725,0.2843
0.7727,0.2844
0.773,0.2845
0.7734,0.2846
0.7737,0.2848
0.7741,0.2849
0.7744,0.285
0.7747,0.2851
0.775,0.2851
0.7753,0.2852
0.7756,0.2853
0.776,0.2855
0.7763,0.2856
0.7767,0.2857
0.7771,0.2859
0.7776,0.2861
0.7781,0.2863
0.7785,0.2866
0.7788,0.2867
0.779,0.2866
0.7792,0.2865
0.7794,0.2865
0.7796,0.2865
0.7799,0.2865
0.7802,0.2867
0.7805,0.2868
0.7809,0.2869
0.7814,0.2872
0.782,0.2876
0.7825,0.2879
0.7829,0.288
0.7832,0.2879
0.7834,0.2879
0.7836,0.2879
0.7838,0.2879
0.7841,0.288
0.7844,0.2881
0.7847,0.2882
0.785,0.2883
0.7854,0.2884
0.7857,0.2886
0.786,0.2886
0.7864,0.2887
0.7867,0.2888
0.787,0.289
0.7874,0.2892
0.7877,0.2892
0.7881,0.2893
0.7885,0.2895
0.7889,0.2897
0.7894,0.2901
0.7898,0.2902
0.7902,0.2903
0.7904,0.2903
0.7906,0.2902
0.7908,0.2901
0.791,0.2902
0.7912,0.2902
0.7915,0.2902
0.7918,0.2904
0.7922,0.2906
0.7927,0.2908
0.7932,0.2911
0.7938,0.2915
0.7942,0.2918
0.7946,0.2918
0.7948,0.2918
0.795,0.2919
0.7952,0.2918
0.7954,0.2917
0.7957,0.2918
0.7961,0.2919
0.7964,0.292
0.7967,0.2921
0.7971,0.2922
0.7974,0.2923
0.7978,0.2925
0.7981,0.2925
0.7984,0.2926
0.7987,0.2927
0.799,0.2928
0.7994,0.2929
0.7998,0.2932
0.8002,0.2934
0.8006,0.2936
0.8011,0.2937
0.8015,0.2939
0.8018,0.2939
0.802,0.2939
0.8022,0.2939
0.8024,0.2939
0.8026,0.2939
0.8029,0.2939
0.8032,0.294
0.8035,0.2942
0.804,0.2944
0.8045,0.2946
0.805,0.2949
0.8056,0.2953
0.806,0.2954
0.8062,0.2954
0.8064,0.2953
0.8066,0.2953
0.8068,0.2953
0.8071,0.2953
0.8074,0.2954
0.8077,0.2955
0.808,0.2956
0.8084,0.2956
0.8087,0.2958
0.8091,0.296
0.8094,0.2961
0.8097,0.2961
0.81,0.2962
0.8103,0.2963
0.8107,0.2964
0.811,0.2966
0.8114,0.2967
0.8119,0.2969
0.8124,0.2973
0.8129,0.2975
0.8132,0.2975
0.8134,0.2976
0.8136,0.2975
0.8138,0.2974
0.814,0.2973
0.8142,0.2973
0.8145,0.2974
0.8148,0.2975
0.8152,0.2977
0.8157,0.2979
0.8162,0.2982
0.8168,0.2985
0.8173,0.2987
0.8176,0.2988
0.8178,0.2987
0.818,0.2987
0.8182,0.2987
0.8184,0.2986
0.8187,0.2987
0.819,0.2988
0.8193,0.299
0.8197,0.299
0.82,0.2992
0.8204,0.2993
0.8207,0.2994
0.8211,0.2996
0.8213,0.2996
0.8217,0.2997
0.822,0.2998
0.8224,0.2999
0.8228,0.3001
0.8232,0.3003
0.8237,0.3005
0.8241,0.3007
0.8245,0.3008
0.8248,0.3008
0.825,0.3009
0.8251,0.3008
0.8254,0.3007
0.8256,0.3007
0.8259,0.3007
0.8262,0.3008
0.8265,0.301
0.8269,0.3012
0.8274,0.3015
0.828,0.3017
0.8285,0.302
0.8289,0.3022
0.8292,0.3021
0.8294,0.3021
0.8296,0.302
0.8298,0.3021
0.8301,0.3022
0.8304,0.3023
0.8307,0.3023
0.831,0.3024
0.8314,0.3025
0.8317,0.3026
0.832,0.3027
0.8324,0.3028
0.8327,0.303
0.833,0.3031
0.8334,0.3033
0.8337,0.3034
0.8341,0.3035
0.8345,0.3035
0.8349,0.3036
0.8354,0.3039
0.8358,0.304
0.8361,0.3041
0.8363,0.3041
0.8365,0.3041
0.8367,0.3041
0.837,0.304
0.8372,0.3041
0.8375,0.3042
0.8379,0.3042
0.8383,0.3045
0.8387,0.3047
0.8392,0.3051
0.8398,0.3054
0.8403,0.3056
0.8406,0.3056
0.8408,0.3055
0.841,0.3054
0.8412,0.3053
0.8414,0.3054
0.8417,0.3055
0.842,0.3057
0.8423,0.3057
0.8427,0.3058
0.843,0.306
0.8434,0.306
0.8437,0.3062
0.844,0.3062
0.8444,0.3062
0.8447,0.3063
0.845,0.3065
0.8454,0.3068
0.8458,0.3069
0.8462,0.307
0.8467,0.3071
0.8471,0.3074
0.8475,0.3076
0.8478,0.3076
0.848,0.3075
0.8481,0.3075
0.8484,0.3075
0.8486,0.3074
0.8489,0.3075
0.8492,0.3076
0.8496,0.3078
0.85,0.3081
0.8505,0.3083
0.851,0.3086
0.8516,0.3088
0.852,0.3089
0.8522,0.309
0.8524,0.3088
0.8526,0.3088
0.8528,0.3088
0.8531,0.3089
0.8534,0.309
0.8537,0.3091
0.854,0.3092
0.8544,0.3092
0.8547,0.3094
0.855,0.3094
0.8554,0.3095
0.8557,0.3097
0.856,0.3098
0.8564,0.3099
0.8567,0.3101
0.8571,0.3102
0.8575,0.3104
0.858,0.3106
0.8584,0.3109
0.8589,0.311
0.8592,0.3111
0.8594,0.311
0.8595,0.3109
0.8597,0.3109
0.86,0.3109
0.8602,0.3109
0.8605,0.311
0.8609,0.3112
0.8612,0.3113
0.8617,0.3115
0.8622,0.3119
0.8628,0.3121
0.8633,0.3124
0.8636,0.3124
0.8638,0.3123
0.864,0.3122
0.8642,0.3123
0.8644,0.3123
0.8647,0.3123
0.865,0.3125
0.8654,0.3125
0.8657,0.3126
0.8661,0.3128
0.8664,0.3129
0.8667,0.3131
0.867,0.3131
0.8673,0.3131
0.8677,0.3132
0.868,0.3134
0.8684,0.3136
0.8688,0.3138
0.8692,0.314
0.8697,0.3142
0.8701,0.3144
0.8705,0.3145
0.8707,0.3145
0.8709,0.3145
0.8711,0.3144
0.8714,0.3143
0.8716,0.3142
0.8719,0.3143
0.8722,0.3144
0.8726,0.3148
0.873,0.3149
0.8735,0.3151
0.874,0.3155
0.8746,0.3158
0.8749,0.3159
0.8752,0.3159
0.8754,0.3159
0.8756,0.3158
0.8758,0.3157
0.8761,0.3157
0.8764,0.3159
0.8767,0.316
0.877,0.3161
0.8774,0.3161
0.8777,0.3162
0.878,0.3164
0.8783,0.3166
0.8787,0.3167
0.879,0.3167
0.8793,0.3168
0.8797,0.317
0.8801,0.3171
0.8805,0.3174
0.881,0.3176
0.8814,0.3178
0.8818,0.3178
0.8821,0.3179
0.8824,0.3179
0.8825,0.3179
0.8827,0.3178
0.883,0.3179
0.8832,0.318
0.8835,0.318
0.8839,0.3181
0.8843,0.3183
0.8847,0.3185
0.8852,0.3187
0.8858,0.319
0.8862,0.3192
0.8866,0.3193
0.8868,0.3192
0.8869,0.3192
0.8872,0.3192
0.8874,0.3193
0.8877,0.3193
0.888,0.3194
0.8883,0.3195
0.8887,0.3196
0.889,0.3197
0.8894,0.3199
0.8897,0.32
0.89,0.3201
0.8904,0.3202
0.8907,0.3202
0.891,0.3204
0.8914,0.3204
0.8918,0.3206
0.8922,0.3208
0.8927,0.3211
0.8931,0.3213
0.8935,0.3215
0.8938,0.3215
0.894,0.3214
0.8941,0.3214
0.8943,0.3213
0.8946,0.3214
0.8949,0.3215
0.8952,0.3216
0.8956,0.3217
0.896,0.3218
0.8965,0.3221
0.897,0.3223
0.8975,0.3226
0.8979,0.3228
0.8982,0.3228
0.8984,0.3227
0.8986,0.3227
0.8988,0.3227
0.8991,0.3228
0.8994,0.3229
0.8997,0.323
0.9,0.323
0.9004,0.3232
0.9007,0.3234
0.9011,0.3235
0.9014,0.3236
0.9017,0.3238
0.902,0.3238
0.9024,0.3238
0.9027,0.324
0.9031,0.3241
0.9035,0.3242
0.9039,0.3244
0.9044,0.3247
0.9048,0.3249
0.9051,0.325
0.9053,0.3249
0.9055,0.3249
0.9057,0.3248
0.906,0.3249
0.9062,0.3249
0.9065,0.3249
0.9069,0.325
0.9073,0.3253
0.9078,0.3255
0.9083,0.3259
0.9088,0.3262
0.9093,0.3262
0.9096,0.3263
0.9098,0.3264
0.91,0.3264
0.9102,0.3263
0.9104,0.3263
0.9107,0.3264
0.911,0.3265
0.9113,0.3266
0.9117,0.3266
0.912,0.3267
0.9124,0.3269
0.9127,0.3271
0.913,0.3272
0.9134,0.3273
0.9137,0.3274
0.9141,0.3275
0.9144,0.3276
0.9148,0.3278
0.9152,0.3279
0.9157,0.3282
0.9161,0.3283
0.9165,0.3284
0.9168,0.3284
0.917,0.3285
0.9171,0.3284
0.9173,0.3284
0.9176,0.3285
0.9179,0.3285
0.9182,0.3287
0.9186,0.3289
0.919,0.3291
0.9195,0.3294
0.9201,0.3296
0.9206,0.3299
0.9209,0.33
0.9212,0.33
0.9213,0.33
0.9215,0.3298
0.9218,0.3298
0.922,0.3299
0.9223,0.3301
0.9227,0.3302
0.923,0.3303
0.9234,0.3304
0.9237,0.3306
0.9241,0.3307
0.9244,0.3308
0.9247,0.3309
0.9251,0.3311
0.9254,0.3311
0.9258,0.3313
0.9262,0.3314
0.9266,0.3316
0.927,0.3318
0.9274,0.332
0.9278,0.3322
0.9281,0.3323
0.9283,0.3323
0.9285,0.3323
0.9287,0.3322
0.9289,0.3322
0.9292,0.3322
0.9295,0.3323
0.9299,0.3325
0.9303,0.3327
0.9307,0.3329
0.9313,0.3333
0.9318,0.3336
0.9323,0.3337
0.9326,0.3337
0.9328,0.3336
0.9329,0.3336
0.9332,0.3337
0.9334,0.3337
0.9337,0.3338
0.934,0.3339
0.9343,0.334
0.9347,0.3341
0.9351,0.3344
0.9354,0.3344
0.9357,0.3345
0.936,0.3346
0.9364,0.3347
0.9367,0.3349
0.9371,0.335
0.9374,0.3352
0.9378,0.3353
0.9383,0.3356
0.9387,0.3357
0.9391,0.3358
0.9395,0.336
0.9397,0.336
0.9399,0.336
0.9401,0.336
0.9403,0.336
0.9406,0.336
0.9409,0.3361
0.9412,0.3362
0.9416,0.3363
0.942,0.3365
0.9425,0.3368
0.9431,0.3373
0.9436,0.3376
0.9439,0.3376
0.9441,0.3376
0.9443,0.3375
0.9445,0.3375
0.9448,0.3374
0.945,0.3375
0.9454,0.3376
0.9457,0.3378
0.946,0.338
0.9464,0.3381
0.9467,0.3381
0.947,0.3383
0.9474,0.3385
0.9477,0.3386
0.948,0.3386
0.9484,0.3387
0.9487,0.3389
0.9491,0.3391
0.9495,0.3393
0.95,0.3395
0.9504,0.3397
0.9508,0.3398
0.9511,0.3399
0.9513,0.3399
0.9515,0.3397
0.9517,0.3398
0.9519,0.3399
0.9522,0.3399
0.9525,0.3399
0.9529,0.34
0.9533,0.3403
0.9538,0.3406
0.9543,0.341
0.9549,0.3413
0.9553,0.3415
0.9556,0.3415
0.9557,0.3414
0.9559,0.3413
0.9561,0.3413
0.9564,0.3414
0.9567,0.3414
0.957,0.3415
0.9573,0.3417
0.9577,0.3417
0.958,0.3418
0.9584,0.342
0.9587,0.3421
0.959,0.3423
0.9594,0.3425
0.9597,0.3426
0.9601,0.3427
0.9604,0.3428
0.9608,0.343
0.9613,0.3432
0.9617,0.3435
0.9622,0.3437
0.9625,0.3437
0.9627,0.3436
0.9629,0.3436
0.9631,0.3436
0.9633,0.3436
0.9636,0.3436
0.9639,0.3437
0.9642,0.3439
0.9646,0.3441
0.9651,0.3443
0.9656,0.3446
0.9661,0.3449
0.9666,0.3452
0.9669,0.3452
0.9671,0.3451
0.9673,0.345
0.9675,0.3449
0.9678,0.3451
0.968,0.3451
0.9683,0.3453
0.9687,0.3454
0.969,0.3456
0.9694,0.3457
0.9698,0.3458
0.9701,0.3459
0.9704,0.346
0.9707,0.346
0.9711,0.3462
0.9714,0.3463
0.9718,0.3464
0.9721,0.3467
0.9726,0.3469
0.973,0.347
0.9735,0.3472
0.9739,0.3473
0.9741,0.3474
0.9743,0.3472
0.9745,0.3473
0.9747,0.3473
0.9749,0.3473
0.9752,0.3474
0.9755,0.3474
0.9759,0.3476
0.9763,0.3478
0.9768,0.348
0.9774,0.3485
0.9779,0.3488
0.9783,0.3489
0.9785,0.3489
0.9787,0.3488
0.9789,0.3487
0.9791,0.3487
0.9794,0.3488
0.9797,0.3488
0.98,0.3489
0.9804,0.3491
0.9807,0.3492
0.9811,0.3494
0.9814,0.3495
0.9817,0.3496
0.982,0.3496
0.9823,0.3496
0.9827,0.3498
0.983,0.3499
0.9834,0.3501
0.9838,0.3503
0.9843,0.3505
0.9848,0.3508
0.9852,0.351
0.9855,0.351
0.9857,0.3509
0.9859,0.3509
0.9861,0.3509
0.9863,0.3509
0.9866,0.351
0.9869,0.351
0.9872,0.3511
0.9876,0.3513
0.9881,0.3516
0.9886,0.352
0.9892,0.3523
0.9896,0.3524
0.9899,0.3525
0.9901,0.3524
0.9903,0.3524
0.9905,0.3524
0.9907,0.3524
0.991,0.3525
0.9914,0.3526
0.9917,0.3527
0.992,0.3528
0.9924,0.3529
0.9927,0.3531
0.9931,0.3531
0.9934,0.3533
0.9937,0.3534
0.994,0.3535
0.9944,0.3536
0.9947,0.3536
0.9951,0.3538
0.9956,0.3541
0.996,0.3544
0.9965,0.3546
0.9968,0.3546
0.9971,0.3546
0.9973,0.3546
0.9975,0.3545
0.9977,0.3545
0.9979,0.3545
0.9982,0.3546
0.9985,0.3548
0.9989,0.3549
0.9993,0.3551
0.9998,0.3553
1.0004,0.3557
1.0009,0.3559
1.0013,0.3561
1.0015,0.3561
1.0017,0.356
1.0019,0.3559
1.0021,0.3559
1.0024,0.356
1.0027,0.3562
1.003,0.3563
1.0034,0.3564
1.0037,0.3564
1.0041,0.3565
1.0044,0.3566
1.0047,0.3567
1.005,0.3569
1.0053,0.3571
1.0057,0.3571
1.006,0.3572
1.0064,0.3574
1.0068,0.3577
1.0073,0.3578
1.0077,0.3579
1.0081,0.3581
1.0084,0.3582
1.0086,0.3581
1.0088,0.3581
1.009,0.3581
1.0093,0.3582
1.0095,0.3582
1.0099,0.3584
1.0102,0.3585
1.0106,0.3586
1.0111,0.3589
1.0116,0.3592
1.0122,0.3596
1.0126,0.3597
1.0129,0.3597
1.0131,0.3597
1.0133,0.3597
1.0135,0.3596
1.0138,0.3596
1.0141,0.3597
1.0144,0.3598
1.0147,0.36
1.0151,0.3601
1.0154,0.3602
1.0158,0.3603
1.0161,0.3605
1.0163,0.3605
1.0167,0.3605
1.017,0.3606
1.0174,0.3609
1.0177,0.3611
1.0181,0.3612
1.0186,0.3612
1.019,0.3615
1.0195,0.3618
1.0198,0.3619
1.02,0.3619
1.0202,0.3619
1.0204,0.3618
1.0206,0.3618
1.0209,0.3618
1.0212,0.3619
1.0215,0.3619
1.0219,0.3622
1.0224,0.3625
1.0229,0.3628
1.0235,0.3632
1.0239,0.3634
1.0243,0.3633
1.0244,0.3633
1.0246,0.3632
1.0248,0.3632
1.0251,0.3633
1.0254,0.3634
1.0257,0.3635
1.026,0.3636
1.0264,0.3637
1.0267,0.3639
1.0271,0.364
1.0274,0.364
1.0277,0.3641
1.028,0.3642
1.0283,0.3644
1.0287,0.3646
1.0291,0.3647
1.0294,0.3648
1.0299,0.365
1.0303,0.3653
1.0308,0.3655
1.0312,0.3657
1.0315,0.3657
1.0316,0.3656
1.0318,0.3655
1.032,0.3656
1.0323,0.3656
1.0325,0.3657
1.0329,0.3657
1.0332,0.3658
1.0337,0.3661
1.0342,0.3664
1.0347,0.3667
1.0352,0.367
1.0356,0.367
1.0358,0.367
1.036,0.367
1.0362,0.367
1.0365,0.367
1.0367,0.3672
1.037,0.3673
1.0374,0.3673
1.0377,0.3675
1.0381,0.3676
1.0384,0.3677
1.0387,0.368
1.0391,0.3679
1.0394,0.368
1.0397,0.3681
1.04,0.3682
1.0404,0.3684
1.0408,0.3686
1.0412,0.3687
1.0416,0.369
1.0421,0.3693
1.0425,0.3695
1.0428,0.3696
1.043,0.3695
1.0432,0.3695
1.0434,0.3694
1.0436,0.3694
1.0439,0.3695
1.0442,0.3695
1.0445,0.3696
1.0449,0.3699
1.0454,0.3701
1.046,0.3705
1.0465,0.3708
1.047,0.3709
1.0472,0.371
1.0474,0.371
1.0476,0.3708
1.0478,0.3708
1.0481,0.3709
1.0484,0.371
1.0487,0.371
1.049,0.3712
1.0494,0.3713
1.0497,0.3715
1.0501,0.3716
1.0504,0.3717
1.0507,0.3719
1.051,0.372
1.0513,0.3721
1.0517,0.3721
1.052,0.3723
1.0524,0.3725
1.0529,0.3727
1.0534,0.373
1.0538,0.3732
1.0542,0.3733
1.0544,0.3734
1.0546,0.3733
1.0548,0.3732
1.055,0.3732
1.0552,0.3733
1.0555,0.3733
1.0558,0.3735
1.0562,0.3735
1.0567,0.3738
1.0572,0.3741
1.0577,0.3745
1.0582,0.3748
1.0586,0.3749
1.0588,0.3748
1.059,0.3748
1.0592,0.3748
1.0594,0.3747
1.0597,0.3748
1.06,0.3749
1.0603,0.375
1.0607,0.3751
1.061,0.3753
1.0614,0.3754
1.0617,0.3755
1.0621,0.3756
1.0624,0.3757
1.0627,0.3758
1.063,0.3758
1.0634,0.3759
1.0638,0.3761
1.0642,0.3763
1.0647,0.3766
1.0651,0.3769
1.0655,0.3771
1.0658,0.3771
1.066,0.377
1.0662,0.377
1.0664,0.377
1.0666,0.377
1.0669,0.377
1.0672,0.3772
1.0675,0.3773
1.0679,0.3774
1.0684,0.3777
1.0689,0.378
1.0695,0.3784
1.0699,0.3785
1.0702,0.3786
1.0704,0.3785
1.0706,0.3785
1.0708,0.3786
1.0711,0.3786
1.0714,0.3786
1.0717,0.3787
1.072,0.3789
1.0724,0.3791
1.0727,0.3792
1.0731,0.3793
1.0734,0.3793
1.0737,0.3794
1.074,0.3795
1.0743,0.3797
1.0747,0.3799
1.0751,0.38
1.0755,0.3801
1.0759,0.3803
1.0764,0.3806
1.0768,0.3809
1.0771,0.3809
1.0774,0.3809
1.0776,0.3808
1.0778,0.3808
1.078,0.3808
1.0782,0.3809
1.0785,0.3809
1.0789,0.381
1.0792,0.3812
1.0797,0.3814
1.0802,0.3817
1.0807,0.3821
1.0813,0.3824
1.0816,0.3825
1.0819,0.3824
1.082,0.3823
1.0822,0.3823
1.0824,0.3823
1.0827,0.3823
1.083,0.3825
1.0833,0.3825
1.0837,0.3827
1.084,0.3829
1.0844,0.383
1.0847,0.383
1.085,0.3831
1.0853,0.3832
1.0857,0.3834
1.086,0.3835
1.0864,0.3836
1.0868,0.3837
1.0872,0.3838
1.0876,0.3842
1.0881,0.3844
1.0885,0.3846
1.0888,0.3846
1.089,0.3846
1.0892,0.3845
1.0894,0.3845
1.0896,0.3845
1.0899,0.3846
1.0902,0.3847
1.0906,0.3849
1.091,0.3851
1.0915,0.3853
1.092,0.3856
1.0925,0.3858
1.0929,0.3861
1.0932,0.3863
1.0934,0.3861
1.0936,0.386
1.0938,0.3861
1.0941,0.386
1.0944,0.3861
1.0947,0.3862
1.095,0.3864
1.0953,0.3866
1.0957,0.3867
1.096,0.3868
1.0964,0.387
1.0967,0.3871
1.097,0.3872
1.0974,0.3873
1.0977,0.3874
1.0981,0.3875
1.0985,0.3877
1.0989,0.3879
1.0994,0.3881
1.0999,0.3884
1.1002,0.3885
1.1004,0.3884
1.1006,0.3883
1.1008,0.3883
1.101,0.3884
1.1012,0.3885
1.1015,0.3886
1.1019,0.3886
1.1022,0.3887
1.1027,0.389
1.1032,0.3893
1.1037,0.3896
1.1042,0.3898
1.1046,0.39
1.1049,0.39
1.105,0.3899
1.1052,0.3899
1.1055,0.3899
1.1057,0.3898
1.106,0.3899
1.1064,0.39
1.1067,0.3902
1.1071,0.3903
1.1074,0.3905
1.1077,0.3906
1.1081,0.3907
1.1084,0.3908
1.1087,0.3909
1.109,0.391
1.1094,0.3912
1.1098,0.3913
1.1102,0.3916
1.1107,0.3918
1.1111,0.392
1.1115,0.3921
1.1118,0.3921
1.112,0.3921
1.1122,0.3922
1.1124,0.3922
1.1126,0.3921
1.1129,0.3921
1.1132,0.3922
1.1135,0.3923
1.114,0.3926
1.1144,0.3928
1.115,0.3932
1.1155,0.3934
1.1159,0.3935
1.1162,0.3936
1.1164,0.3936
1.1166,0.3935
1.1168,0.3936
1.1171,0.3936
1.1174,0.3937
1.1177,0.3937
1.118,0.3938
1.1184,0.394
1.1187,0.3941
1.119,0.3942
1.1194,0.3943
1.1197,0.3944
1.12,0.3945
1.1203,0.3946
1.1207,0.3948
1.1211,0.395
1.1215,0.3951
1.1219,0.3953
1.1224,0.3955
1.1228,0.3957
1.1231,0.3957
1.1234,0.3958
1.1236,0.3958
1.1238,0.3958
1.124,0.3958
1.1242,0.3958
1.1245,0.3958
1.1249,0.3959
1.1253,0.3962
1.1257,0.3964
1.1262,0.3967
1.1268,0.3969
1.1272,0.3971
1.1276,0.3972
1.1278,0.3972
1.128,0.3972
1.1282,0.3972
1.1284,0.3972
1.1287,0.3971
1.129,0.3972
1.1293,0.3974
1.1297,0.3975
1.13,0.3976
1.1304,0.3978
1.1307,0.398
1.131,0.3981
1.1313,0.3981
1.1317,0.3981
1.132,0.3982
1.1324,0.3983
1.1328,0.3986
1.1332,0.3988
1.1336,0.399
1.1341,0.3992
1.1345,0.3994
1.1348,0.3995
1.135,0.3994
1.1352,0.3994
1.1354,0.3993
1.1356,0.3994
1.1359,0.3994
1.1362,0.3996
1.1365,0.3997
1.1369,0.3999
1.1374,0.4002
1.1379,0.4005
1.1385,0.4007
1.1389,0.4009
1.1392,0.4009
1.1394,0.4008
1.1396,0.4008
1.1398,0.4007
1.1401,0.4008
1.1403,0.4009
1.1407,0.401
1.141,0.4011
1.1414,0.4012
1.1417,0.4013
1.1421,0.4015
1.1424,0.4016
1.1427,0.4017
1.1431,0.4017
1.1434,0.4019
1.1437,0.402
1.1441,0.402
1.1445,0.4023
1.1449,0.4025
1.1454,0.4027
1.1458,0.4028
1.1461,0.403
1.1464,0.403
1.1466,0.4029
1.1468,0.4029
1.147,0.4028
1.1472,0.4029
1.1475,0.4029
1.1479,0.4031
1.1483,0.4034
1.1487,0.4036
1.1492,0.4039
1.1498,0.4042
1.1503,0.4044
1.1506,0.4046
1.1508,0.4045
1.151,0.4044
1.1512,0.4043
1.1515,0.4044
1.1517,0.4044
1.152,0.4044
1.1523,0.4046
1.1527,0.4048
1.153,0.4049
1.1534,0.4049
1.1537,0.4051
1.1541,0.4052
1.1544,0.4053
1.1547,0.4054
1.1551,0.4054
1.1554,0.4056
1.1558,0.4057
1.1562,0.4059
1.1567,0.4062
1.1571,0.4064
1.1575,0.4065
1.1578,0.4065
1.158,0.4065
1.1582,0.4064
1.1584,0.4065
1.1586,0.4065
1.1589,0.4066
1.1592,0.4066
1.1596,0.4067
1.16,0.4069
1.1605,0.4072
1.161,0.4076
1.1615,0.4078
1.162,0.4079
1.1622,0.408
1.1624,0.4079
1.1626,0.4079
1.1628,0.4079
1.1631,0.408
1.1633,0.4081
1.1637,0.4081
1.164,0.4082
1.1644,0.4083
1.1647,0.4086
1.1651,0.4088
1.1654,0.4088
1.1657,0.4088
1.1661,0.409
1.1664,0.4091
1.1668,0.4091
1.1671,0.4092
1.1675,0.4094
1.168,0.4096
1.1684,0.4099
1.1688,0.41
1.1691,0.4101
1.1694,0.4101
1.1695,0.4101
1.1698,0.41
1.17,0.41
1.1702,0.4101
1.1705,0.4102
1.1709,0.4103
1.1713,0.4105
1.1717,0.4107
1.1722,0.411
1.1728,0.4113
1.1732,0.4115
1.1736,0.4116
1.1738,0.4115
1.174,0.4115
1.1742,0.4115
1.1744,0.4116
1.1747,0.4116
1.175,0.4116
1.1753,0.4117
1.1757,0.4119
1.176,0.4119
1.1764,0.412
1.1767,0.4122
1.177,0.4124
1.1774,0.4125
1.1777,0.4126
1.1781,0.4127
1.1784,0.4129
1.1788,0.413
1.1792,0.4132
1.1797,0.4134
1.1801,0.4136
1.1805,0.4137
1.1807,0.4137
1.1809,0.4136
1.1811,0.4136
1.1813,0.4136
1.1816,0.4136
1.1819,0.4138
1.1822,0.4139
1.1826,0.414
1.183,0.4142
1.1835,0.4145
1.184,0.4148
1.1845,0.415
1.1849,0.4152
1.1852,0.4151
1.1854,0.4151
1.1856,0.4151
1.1858,0.4151
1.1861,0.4151
1.1863,0.4152
1.1867,0.4153
1.187,0.4154
1.1873,0.4155
1.1877,0.4157
1.188,0.4157
1.1884,0.4159
1.1887,0.416
1.189,0.4162
1.1894,0.4162
1.1897,0.4163
1.1901,0.4165
1.1905,0.4167
1.1909,0.4169
1.1914,0.4171
1.1918,0.4172
1.1921,0.4173
1.1923,0.4173
1.1925,0.4173
1.1927,0.4173
1.193,0.4174
1.1932,0.4173
1.1935,0.4173
1.1939,0.4174
1.1943,0.4176
1.1948,0.418
1.1953,0.4183
1.1958,0.4185
1.1963,0.4187
1.1966,0.4188
1.1968,0.4188
1.1969,0.4187
1.1972,0.4186
1.1974,0.4186
1.1977,0.4186
1.198,0.4188
1.1983,0.419
1.1987,0.4191
1.199,0.4192
1.1994,0.4193
1.1997,0.4194
1.2,0.4197
1.2004,0.4197
1.2007,0.4197
1.2011,0.4198
1.2014,0.42
1.2018,0.4201
1.2022,0.4204
1.2027,0.4206
1.2032,0.4207
1.2035,0.4208
1.2037,0.4208
1.2039,0.4208
1.2041,0.4208
1.2043,0.4208
1.2046,0.4209
1.2049,0.421
1.2052,0.421
1.2056,0.4211
1.206,0.4214
1.2066,0.4217
1.2071,0.4221
1.2076,0.4223
1.2079,0.4223
1.2081,0.4222
1.2083,0.4222
1.2085,0.4222
1.2088,0.4223
1.209,0.4223
1.2093,0.4224
1.2097,0.4225
1.21,0.4227
1.2104,0.4229
1.2108,0.4229
1.2111,0.4231
1.2114,0.4232
1.2117,0.4232
1.2121,0.4232
1.2124,0.4234
1.2128,0.4235
1.2131,0.4237
1.2135,0.4239
1.214,0.424
1.2144,0.4244
1.2148,0.4244
1.2151,0.4244
1.2153,0.4245
1.2155,0.4245
1.2157,0.4244
1.2159,0.4244
1.2162,0.4245
1.2165,0.4245
1.2169,0.4246
1.2173,0.4248
1.2178,0.4251
1.2183,0.4255
1.2189,0.4258
1.2193,0.4259
1.2196,0.426
1.2197,0.4259
1.2199,0.4259
1.2202,0.4258
1.2204,0.4258
1.2207,0.426
1.221,0.426
1.2214,0.4261
1.2217,0.4262
1.2221,0.4265
1.2224,0.4266
1.2228,0.4267
1.2231,0.4268
1.2234,0.4269
1.2237,0.4269
1.224,0.427
1.2244,0.4271
1.2248,0.4274
1.2253,0.4276
1.2257,0.4278
1.2262,0.428
1.2265,0.4281
1.2267,0.4281
1.2269,0.428
1.2271,0.428
1.2273,0.4281
1.2276,0.4281
1.2279,0.4282
1.2282,0.4283
1.2286,0.4285
1.229,0.4287
1.2296,0.4289
1.2301,0.4293
1.2306,0.4295
1.2309,0.4296
1.2311,0.4296
1.2313,0.4295
1.2315,0.4295
1.2318,0.4295
1.232,0.4295
1.2324,0.4296
1.2327,0.4298
1.233,0.43
1.2334,0.4301
1.2337,0.4302
1.234,0.4303
1.2344,0.4303
1.2347,0.4305
1.235,0.4306
1.2354,0.4307
1.2357,0.4308
1.2361,0.4309
1.2365,0.4311
1.237,0.4314
1.2375,0.4317
1.2378,0.4318
1.2381,0.4318
1.2383,0.4318
1.2385,0.4317
1.2387,0.4316
1.2389,0.4317
1.2392,0.4318
1.2395,0.4319
1.2399,0.432
1.2403,0.4322
1.2408,0.4325
1.2413,0.4327
1.2419,0.4329
1.2423,0.4332
1.2425,0.4333
1.2427,0.4332
1.2429,0.4331
1.2431,0.433
1.2434,0.4331
1.2437,0.4333
1.244,0.4334
1.2444,0.4334
1.2447,0.4335
1.245,0.4336
1.2454,0.4337
1.2457,0.4339
1.246,0.4341
1.2464,0.4341
1.2467,0.4341
1.2471,0.4343
1.2474,0.4345
1.2478,0.4346
1.2483,0.4349
1.2487,0.4351
1.2491,0.4353
1.2494,0.4354
1.2497,0.4353
1.2499,0.4353
1.2501,0.4353
1.2503,0.4353
1.2506,0.4353
1.2509,0.4354
1.2512,0.4356
1.2516,0.4357
1.2521,0.4359
1.2526,0.4363
1.2531,0.4367
1.2536,0.4369
1.2539,0.4369
1.2541,0.4369
1.2543,0.4368
1.2545,0.4368
1.2548,0.4369
1.2551,0.4368
1.2554,0.4369
1.2557,0.4371
1.256,0.4371
1.2564,0.4373
1.2567,0.4375
1.2571,0.4375
1.2574,0.4376
1.2577,0.4377
1.258,0.4378
1.2584,0.4379
1.2587,0.4381
1.2591,0.4383
1.2595,0.4384
1.26,0.4386
1.2604,0.4389
1.2608,0.439
1.2611,0.439
1.2613,0.4389
1.2615,0.4389
1.2617,0.4388
1.2619,0.4389
1.2622,0.439
1.2625,0.4392
1.2629,0.4392
1.2634,0.4395
1.2639,0.4398
1.2644,0.4402
1.2649,0.4405
1.2653,0.4405
1.2655,0.4404
1.2656,0.4403
1.2659,0.4404
1.2661,0.4404
1.2664,0.4405
1.2667,0.4406
1.267,0.4407
1.2674,0.4408
1.2677,0.4409
1.2681,0.441
1.2684,0.4411
1.2687,0.4413
1.269,0.4413
1.2694,0.4413
1.2697,0.4415
1.2701,0.4417
1.2704,0.4418
1.2708,0.442
1.2713,0.4422
1.2718,0.4425
1.2722,0.4427
1.2725,0.4427
1.2727,0.4426
1.2729,0.4426
1.2731,0.4425
1.2733,0.4426
1.2735,0.4427
1.2739,0.4427
1.2742,0.4428
1.2746,0.4431
1.2751,0.4433
1.2757,0.4435
1.2762,0.4439
1.2766,0.4441
1.2769,0.4442
1.277,0.4441
1.2772,0.444
1.2775,0.4441
1.2777,0.4441
1.278,0.4441
1.2783,0.4442
1.2787,0.4443
1.279,0.4444
1.2794,0.4445
1.2797,0.4446
1.2801,0.4448
1.2804,0.445
1.2807,0.4451
1.2811,0.4452
1.2814,0.4454
1.2818,0.4454
1.2822,0.4455
1.2826,0.4457
1.283,0.4459
1.2835,0.4461
1.2838,0.4462
1.284,0.4463
1.2842,0.4462
1.2844,0.4462
1.2847,0.4462
1.2849,0.4462
1.2852,0.4462
1.2856,0.4463
1.2859,0.4465
1.2864,0.4468
1.2869,0.4471
1.2875,0.4474
1.288,0.4477
1.2883,0.4477
1.2885,0.4477
1.2886,0.4476
1.2888,0.4476
1.2891,0.4477
1.2894,0.4478
1.2897,0.4478
1.29,0.4479
1.2904,0.448
1.2907,0.4481
1.2911,0.4482
1.2914,0.4484
1.2917,0.4485
1.292,0.4486
1.2923,0.4486
1.2927,0.4487
1.293,0.4489
1.2934,0.4491
1.2939,0.4492
1.2943,0.4495
1.2948,0.4498
1.2952,0.4499
1.2955,0.4498
1.2956,0.4499
1.2958,0.4498
1.296,0.4497
1.2963,0.4497
1.2965,0.4498
1.2968,0.4499
1.2972,0.4501
1.2976,0.4503
1.2981,0.4505
1.2987,0.4508
1.2992,0.4511
1.2996,0.4512
1.2999,0.4512
1.3,0.4512
1.3002,0.4512
1.3005,0.4512
1.3007,0.4514
1.301,0.4514
1.3013,0.4514
1.3017,0.4516
1.302,0.4517
1.3024,0.4519
1.3028,0.452
1.3031,0.4521
1.3034,0.4522
1.3037,0.4522
1.304,0.4524
1.3044,0.4525
1.3048,0.4526
1.3052,0.4528
1.3056,0.453
1.3061,0.4532
1.3065,0.4534
1.3068,0.4534
1.307,0.4534
1.3072,0.4534
1.3074,0.4533
1.3076,0.4534
1.3079,0.4534
1.3082,0.4536
1.3085,0.4536
1.3089,0.4537
1.3094,0.454
1.3099,0.4543
1.3104,0.4546
1.3109,0.4549
1.3112,0.455
1.3114,0.4549
1.3116,0.4547
1.3118,0.4548
1.3121,0.4549
1.3124,0.4549
1.3127,0.4551
1.313,0.4551
1.3133,0.4551
1.3137,0.4553
1.314,0.4555
1.3144,0.4556
1.3147,0.4557
1.315,0.4557
1.3153,0.4558
1.3157,0.456
1.3161,0.4561
1.3165,0.4563
1.3169,0.4563
1.3173,0.4565
1.3177,0.4568
1.3181,0.4569
1.3184,0.4569
1.3186,0.457
1.3188,0.4569
1.319,0.4569
1.3193,0.457
1.3195,0.4572
1.3199,0.4572
1.3202,0.4573
1.3206,0.4575
1.3211,0.4578
1.3217,0.4582
1.3222,0.4584
1.3226,0.4585
1.3229,0.4585
1.323,0.4585
1.3232,0.4584
1.3235,0.4584
1.3237,0.4584
1.324,0.4585
1.3243,0.4586
1.3247,0.4588
1.325,0.4589
1.3254,0.4589
1.3257,0.459
1.3261,0.4592
1.3264,0.4593
1.3267,0.4593
1.327,0.4595
1.3274,0.4597
1.3278,0.4598
1.3282,0.4599
1.3286,0.4601
1.3291,0.4604
1.3295,0.4606
1.3298,0.4606
1.33,0.4606
1.3302,0.4605
1.3304,0.4605
1.3306,0.4605
1.3309,0.4605
1.3312,0.4606
1.3316,0.4607
1.332,0.4609
1.3324,0.4612
1.333,0.4615
1.3335,0.4618
1.3339,0.462
1.3342,0.4622
1.3344,0.4622
1.3346,0.4621
1.3348,0.462
1.3351,0.4619
1.3354,0.4619
1.3357,0.4622
1.336,0.4622
1.3363,0.4623
1.3367,0.4625
1.337,0.4626
1.3374,0.4626
1.3377,0.4628
1.338,0.4628
1.3384,0.4629
1.3387,0.4631
1.3391,0.4633
1.3395,0.4635
1.3399,0.4637
1.3404,0.4639
1.3408,0.4641
1.3412,0.4642
1.3414,0.4643
1.3416,0.4642
1.3418,0.4642
1.342,0.464
1.3422,0.464
1.3425,0.4641
1.3429,0.4642
1.3432,0.4645
1.3436,0.4647
1.3441,0.465
1.3447,0.4652
1.3452,0.4656
1.3456,0.4657
1.3459,0.4657
1.3461,0.4656
1.3463,0.4655
1.3465,0.4656
1.3468,0.4656
1.347,0.4657
1.3474,0.4658
1.3477,0.4659
1.348,0.466
1.3484,0.4662
1.3487,0.4663
1.349,0.4663
1.3494,0.4664
1.3497,0.4665
1.35,0.4666
1.3504,0.4666
1.3508,0.4669
1.3512,0.4671
1.3516,0.4673
1.3521,0.4676
1.3525,0.4678
1.3528,0.4678
1.353,0.4678
1.3532,0.4678
1.3534,0.4677
1.3536,0.4677
1.3539,0.4678
1.3542,0.4679
1.3545,0.4679
1.3549,0.4681
1.3554,0.4683
1.3559,0.4687
1.3565,0.4689
1.3569,0.4691
1.3572,0.4692
1.3574,0.4692
1.3576,0.4691
1.3578,0.4691
1.3581,0.4691
1.3584,0.4692
1.3587,0.4692
1.359,0.4694
1.3593,0.4695
1.3597,0.4697
1.36,0.4698
1.3603,0.4698
1.3607,0.47
1.361,0.47
1.3613,0.4701
1.3617,0.4702
1.3621,0.4704
1.3625,0.4706
1.3629,0.4707
1.3633,0.4709
1.3638,0.4712
1.3641,0.4713
1.3644,0.4715
1.3646,0.4714
1.3648,0.4712
1.365,0.4712
1.3653,0.4712
1.3655,0.4713
1.3659,0.4714
1.3662,0.4716
1.3667,0.4718
1.3672,0.4721
1.3677,0.4723
1.3682,0.4726
1.3686,0.4727
1.3688,0.4728
1.369,0.4729
1.3692,0.4727
1.3694,0.4726
1.3697,0.4726
1.37,0.4727
1.3703,0.4728
1.3707,0.473
1.371,0.4731
1.3714,0.4733
1.3717,0.4734
1.372,0.4735
1.3724,0.4735
1.3727,0.4736
1.373,0.4737
1.3734,0.4737
1.3738,0.4739
1.3742,0.4742
1.3746,0.4745
1.3751,0.4747
1.3755,0.4748
1.3758,0.4749
1.376,0.4749
1.3762,0.4749
1.3764,0.4748
1.3766,0.4748
1.3769,0.4748
1.3772,0.4749
1.3775,0.475
1.3779,0.4752
1.3784,0.4755
1.3789,0.4758
1.3795,0.4761
1.3799,0.4763
1.3802,0.4763
1.3804,0.4763
1.3806,0.4763
1.3808,0.4763
1.3811,0.4762
1.3814,0.4763
1.3817,0.4764
1.382,0.4765
1.3824,0.4765
1.3827,0.4766
1.3831,0.4768
1.3834,0.4769
1.3837,0.477
1.3841,0.4771
1.3844,0.4773
1.3847,0.4775
1.3851,0.4775
1.3855,0.4776
1.3859,0.4779
1.3863,0.4781
1.3868,0.4783
1.3871,0.4783
1.3874,0.4783
1.3876,0.4783
1.3878,0.4784
1.388,0.4783
1.3882,0.4783
1.3885,0.4784
1.3889,0.4785
1.3892,0.4786
1.3897,0.4789
1.3902,0.4792
1.3907,0.4795
1.3912,0.4798
1.3916,0.4798
1.3918,0.4798
1.392,0.4798
1.3922,0.4797
1.3925,0.4797
1.3927,0.4798
1.393,0.4799
1.3933,0.48
1.3937,0.4801
1.394,0.4802
1.3944,0.4803
1.3947,0.4804
1.3951,0.4805
1.3954,0.4806
1.3957,0.4807
1.3961,0.4809
1.3964,0.481
1.3968,0.4811
1.3972,0.4813
1.3976,0.4814
1.3981,0.4817
1.3985,0.4818
1.3988,0.482
1.399,0.4819
1.3992,0.4818
1.3994,0.4818
1.3996,0.4818
1.3999,0.4819
1.4002,0.4819
1.4006,0.4821
1.401,0.4823
1.4014,0.4826
1.402,0.4829
1.4025,0.4832
1.4029,0.4833
1.4032,0.4833
1.4034,0.4833
1.4036,0.4833
1.4038,0.4833
1.4041,0.4833
1.4043,0.4834
1.4046,0.4835
1.405,0.4835
1.4053,0.4836
1.4057,0.4839
1.4061,0.4841
1.4064,0.4842
1.4067,0.4842
1.4071,0.4843
1.4074,0.4843
1.4077,0.4845
1.4081,0.4846
1.4085,0.4849
1.4089,0.485
1.4094,0.4852
1.4098,0.4854
1.4101,0.4855
1.4104,0.4856
1.4106,0.4855
1.4108,0.4855
1.411,0.4854
1.4112,0.4854
1.4115,0.4854
1.4119,0.4856
1.4122,0.4857
1.4127,0.486
1.4132,0.4863
1.4137,0.4866
1.4142,0.4869
1.4146,0.4869
1.4148,0.4868
1.415,0.4869
1.4152,0.4869
1.4154,0.4869
1.4157,0.4869
1.416,0.487
1.4163,0.4871
1.4167,0.4872
1.417,0.4874
1.4174,0.4876
1.4177,0.4877
1.4181,0.4878
1.4184,0.4879
1.4187,0.4879
1.4191,0.4881
1.4194,0.4883
1.4198,0.4884
1.4202,0.4886
1.4207,0.4888
1.4211,0.489
1.4215,0.4891
1.4217,0.4893
1.422,0.4893
1.4222,0.4892
1.4224,0.4891
1.4226,0.4891
1.4229,0.4892
1.4232,0.4894
1.4236,0.4894
1.424,0.4896
1.4244,0.4899
1.425,0.4902
1.4255,0.4905
1.4259,0.4906
1.4262,0.4907
1.4264,0.4907
1.4266,0.4907
1.4268,0.4907
1.4271,0.4906
1.4274,0.4907
1.4277,0.4908
1.428,0.491
1.4283,0.4912
1.4287,0.4913
1.429,0.4915
1.4294,0.4916
1.4297,0.4917
1.43,0.4917
1.4304,0.4919
1.4307,0.4919
1.4311,0.4921
1.4315,0.4923
1.4319,0.4925
1.4323,0.4927
1.4328,0.4929
1.4331,0.493
1.4334,0.4929
1.4336,0.4929
1.4338,0.493
1.434,0.493
1.4342,0.493
1.4345,0.493
1.4349,0.4931
1.4353,0.4933
1.4357,0.4936
1.4363,0.494
1.4368,0.4943
1.4373,0.4946
1.4376,0.4947
1.4378,0.4946
1.438,0.4944
1.4382,0.4944
1.4384,0.4945
1.4387,0.4946
1.439,0.4947
1.4393,0.4947
1.4397,0.4949
1.44,0.4951
1.4404,0.4953
1.4407,0.4954
1.441,0.4955
1.4414,0.4955
1.4417,0.4955
1.442,0.4956
1.4424,0.4959
1.4428,0.4961
1.4432,0.4962
1.4437,0.4965
1.4441,0.4968
1.4445,0.4969
1.4448,0.4969
1.445,0.4968
1.4451,0.4968
1.4453,0.4967
1.4456,0.4967
1.4459,0.4968
1.4462,0.4969
1.4466,0.497
1.447,0.4973
1.4475,0.4976
1.448,0.4979
1.4485,0.4982
1.4489,0.4983
1.4491,0.4983
1.4493,0.4983
1.4495,0.4982
1.4498,0.4983
1.45,0.4983
1.4503,0.4984
1.4507,0.4985
1.451,0.4987
1.4514,0.499
1.4517,0.499
1.4521,0.4991
1.4524,0.4991
1.4527,0.4992
1.4531,0.4993
1.4534,0.4994
1.4537,0.4995
1.4541,0.4996
1.4545,0.4998
1.455,0.5001
1.4554,0.5003
1.4558,0.5005
1.4561,0.5006
1.4563,0.5006
1.4565,0.5005
1.4567,0.5004
1.4569,0.5004
1.4572,0.5005
1.4575,0.5006
1.4578,0.5008
1.4583,0.501
1.4587,0.5012
1.4593,0.5015
1.4598,0.5018
1.4603,0.502
1.4606,0.5021
1.4608,0.5021
1.461,0.502
1.4612,0.502
1.4614,0.5021
1.4617,0.5021
1.462,0.5022
1.4623,0.5023
1.4627,0.5024
1.4631,0.5025
1.4634,0.5028
1.4638,0.5028
1.4641,0.5029
1.4644,0.503
1.4647,0.503
1.4651,0.5032
1.4654,0.5034
1.4658,0.5036
1.4662,0.5037
1.4667,0.5038
1.4671,0.5041
1.4675,0.5043
1.4677,0.5044
1.4679,0.5043
1.4681,0.5042
1.4683,0.5042
1.4686,0.5042
1.4689,0.5043
1.4692,0.5045
1.4696,0.5046
1.47,0.5048
1.4705,0.505
1.4711,0.5054
1.4716,0.5057
1.472,0.5058
1.4722,0.5058
1.4724,0.5058
1.4725,0.5058
1.4728,0.5057
1.4731,0.5058
1.4734,0.5059
1.4737,0.5059
1.474,0.506
1.4743,0.5062
1.4747,0.5063
1.475,0.5064
1.4754,0.5065
1.4757,0.5066
1.476,0.5069
1.4764,0.5069
1.4767,0.507
1.4771,0.5071
1.4775,0.5074
1.478,0.5076
1.4784,0.5078
1.4788,0.5079
1.4791,0.508
1.4793,0.508
1.4795,0.508
1.4797,0.5079
1.48,0.5079
1.4802,0.508
1.4805,0.5081
1.4809,0.5083
1.4813,0.5085
1.4818,0.5087
1.4823,0.509
1.4828,0.5093
1.4832,0.5094
1.4835,0.5095
1.4837,0.5094
1.4839,0.5093
1.4841,0.5093
1.4844,0.5093
1.4847,0.5095
1.485,0.5095
1.4853,0.5096
1.4857,0.5098
1.486,0.51
1.4864,0.5101
1.4867,0.5102
1.4871,0.5103
1.4874,0.5104
1.4877,0.5105
1.4881,0.5107
1.4884,0.5108
1.4888,0.5109
1.4892,0.5111
1.4897,0.5113
1.4901,0.5115
1.4905,0.5117
1.4907,0.5116
1.4909,0.5115
1.4911,0.5115
1.4913,0.5115
1.4916,0.5115
1.4919,0.5116
1.4922,0.5118
1.4926,0.5119
1.493,0.5122
1.4935,0.5126
1.4941,0.5129
1.4946,0.5131
1.4949,0.5131
1.4951,0.5131
1.4953,0.5131
1.4955,0.5131
1.4958,0.5131
1.4961,0.5132
1.4964,0.5133
1.4967,0.5134
1.497,0.5135
1.4974,0.5136
1.4977,0.5137
1.4981,0.5138
1.4984,0.5139
1.4987,0.5139
1.499,0.5141
1.4994,0.5143
1.4997,0.5144
1.5001,0.5145
1.5005,0.5146
1.501,0.5148
1.5014,0.5151
1.5018,0.5152
1.5021,0.5152
1.5023,0.5152
1.5025,0.5152
1.5027,0.5152
1.5029,0.5153
1.5032,0.5154
1.5035,0.5155
1.5039,0.5156
1.5043,0.5158
1.5049,0.5161
1.5054,0.5164
1.5059,0.5165
1.5063,0.5167
1.5065,0.5167
1.5067,0.5166
1.5069,0.5166
1.5071,0.5166
1.5074,0.5167
1.5077,0.5169
1.508,0.5169
1.5084,0.517
1.5087,0.5171
1.5091,0.5172
1.5094,0.5173
1.5097,0.5175
1.51,0.5176
1.5104,0.5177
1.5107,0.5178
1.5111,0.5179
1.5114,0.5181
1.5118,0.5182
1.5123,0.5184
1.5128,0.5187
1.5132,0.5188
1.5135,0.5189
1.5137,0.5189
1.5139,0.5188
1.5141,0.5188
1.5143,0.5188
1.5146,0.5189
1.5149,0.5189
1.5152,0.5191
1.5156,0.5194
1.5161,0.5195
1.5166,0.5198
1.5172,0.5202
1.5176,0.5204
1.5179,0.5205
1.5181,0.5203
1.5183,0.5203
1.5185,0.5203
1.5187,0.5204
1.519,0.5204
1.5193,0.5204
1.5197,0.5205
1.52,0.5207
1.5204,0.5208
1.5207,0.5209
1.5211,0.521
1.5214,0.5212
1.5217,0.5212
1.5221,0.5214
1.5224,0.5215
1.5228,0.5216
1.5232,0.5217
1.5236,0.522
1.524,0.5223
1.5245,0.5225
1.5248,0.5225
1.5251,0.5225
1.5253,0.5224
1.5255,0.5224
1.5257,0.5225
1.5259,0.5225
1.5262,0.5226
1.5265,0.5227
1.5269,0.5228
1.5274,0.523
1.5279,0.5233
1.5284,0.5236
1.5289,0.5238
1.5293,0.5239
1.5295,0.5239
1.5297,0.5239
1.5299,0.5238
1.5301,0.5239
1.5304,0.524
1.5307,0.5241
1.531,0.5241
1.5314,0.5241
1.5317,0.5243
1.5321,0.5244
1.5324,0.5245
1.5327,0.5247
1.533,0.5247
1.5333,0.5248
1.5337,0.525
1.534,0.5252
1.5344,0.5253
1.5348,0.5255
1.5353,0.5257
1.5358,0.5258
1.5362,0.526
1.5365,0.5261
1.5367,0.5261
1.5368,0.5261
1.537,0.526
1.5373,0.526
1.5375,0.5261
1.5378,0.5262
1.5382,0.5263
1.5386,0.5265
1.5391,0.5268
1.5396,0.5271
1.5402,0.5274
1.5406,0.5275
1.5409,0.5275
1.5411,0.5274
1.5413,0.5275
1.5415,0.5275
1.5417,0.5275
1.542,0.5276
1.5423,0.5277
1.5427,0.5278
1.543,0.528
1.5434,0.5281
1.5437,0.5282
1.5441,0.5282
1.5444,0.5282
1.5447,0.5284
1.545,0.5284
1.5454,0.5285
1.5457,0.5287
1.5461,0.5289
1.5466,0.5291
1.547,0.5294
1.5475,0.5297
1.5478,0.5297
1.548,0.5297
1.5482,0.5297
1.5484,0.5296
1.5487,0.5296
1.5489,0.5297
1.5492,0.5298
1.5495,0.5299
1.5499,0.53
1.5503,0.5303
1.5509,0.5306
1.5514,0.5307
1.5519,0.531
1.5522,0.5312
1.5525,0.5312
1.5527,0.5312
1.5529,0.5311
1.5531,0.5311
1.5534,0.5312
1.5537,0.5312
1.554,0.5313
1.5543,0.5314
1.5547,0.5315
1.555,0.5316
1.5554,0.5318
1.5557,0.5319
1.556,0.5319
1.5564,0.532
1.5567,0.5322
1.5571,0.5323
1.5575,0.5325
1.5579,0.5327
1.5583,0.5329
1.5588,0.5331
1.5591,0.5333
1.5594,0.5333
1.5596,0.5333
1.5598,0.5332
1.56,0.5331
1.5603,0.5331
1.5606,0.5332
1.5609,0.5333
1.5612,0.5333
1.5616,0.5336
1.5621,0.5339
1.5626,0.5342
1.5632,0.5345
1.5636,0.5347
1.5639,0.5348
1.5641,0.5347
1.5643,0.5346
1.5645,0.5346
1.5647,0.5346
1.565,0.5347
1.5653,0.5348
1.5657,0.5349
1.566,0.535
1.5664,0.535
1.5667,0.5351
1.5671,0.5353
1.5674,0.5354
1.5677,0.5356
1.568,0.5357
1.5684,0.5358
1.5688,0.536
1.5692,0.5361
1.5696,0.5363
1.57,0.5365
1.5705,0.5368
1.5708,0.5368
1.571,0.5368
1.5712,0.5368
1.5714,0.5369
1.5716,0.5369
1.5719,0.5369
1.5722,0.5369
1.5725,0.537
1.5729,0.5372
1.5734,0.5374
1.5739,0.5377
1.5744,0.538
1.5749,0.5381
1.5753,0.5383
1.5755,0.5384
1.5757,0.5382
1.5759,0.5382
1.5761,0.5382
1.5764,0.5382
1.5767,0.5383
1.577,0.5385
1.5773,0.5386
1.5777,0.5387
1.578,0.5388
1.5784,0.5389
1.5787,0.539
1.579,0.539
1.5794,0.5391
1.5797,0.5393
1.5801,0.5394
1.5805,0.5397
1.5809,0.5399
1.5813,0.54
1.5818,0.5403
1.5822,0.5404
1.5824,0.5404
1.5826,0.5404
1.5828,0.5404
1.583,0.5403
1.5833,0.5403
1.5835,0.5403
1.5838,0.5404
1.5842,0.5405
1.5846,0.5408
1.5851,0.541
1.5856,0.5413
1.5862,0.5416
1.5866,0.5417
1.5869,0.5418
1.5871,0.5418
1.5873,0.5418
1.5875,0.5418
1.5878,0.5418
1.588,0.5418
1.5884,0.5419
1.5887,0.542
1.589,0.5422
1.5894,0.5423
1.5897,0.5424
1.5901,0.5425
1.5904,0.5427
1.5907,0.5428
1.591,0.5429
1.5914,0.543
1.5918,0.543
1.5922,0.5432
1.5926,0.5434
1.593,0.5436
1.5935,0.5439
1.5938,0.544
1.594,0.5439
1.5942,0.5438
1.5944,0.5437
1.5946,0.5437
1.5949,0.5438
1.5952,0.5439
1.5955,0.5439
1.5959,0.5441
1.5964,0.5445
1.5969,0.5448
1.5974,0.545
1.5979,0.5452
1.5982,0.5454
1.5985,0.5454
1.5987,0.5453
1.5989,0.5453
1.5991,0.5452
1.5994,0.5453
1.5997,0.5453
1.6,0.5454
1.6003,0.5456
1.6007,0.5457
1.601,0.5458
1.6014,0.5459
1.6017,0.5459
1.602,0.5461
1.6024,0.5462
1.6027,0.5464
1.6031,0.5465
1.6035,0.5467
1.6039,0.5469
1.6043,0.5471
1.6048,0.5472
1.6052,0.5473
1.6054,0.5474
1.6056,0.5474
1.6058,0.5474
1.606,0.5473
1.6063,0.5473
1.6065,0.5473
1.6069,0.5475
1.6072,0.5477
1.6076,0.5479
1.6081,0.5481
1.6087,0.5484
1.6092,0.5488
1.6096,0.5488
1.6098,0.5488
1.61,0.5488
1.6102,0.5487
1.6105,0.5487
1.6107,0.5487
1.611,0.5488
1.6113,0.5489
1.6116,0.5489
1.612,0.5491
1.6124,0.5493
1.6127,0.5494
1.613,0.5495
1.6134,0.5495
1.6137,0.5496
1.614,0.5498
1.6144,0.5499
1.6147,0.5499
1.6151,0.5501
1.6156,0.5504
1.616,0.5506
1.6165,0.5508
1.6168,0.5509
1.6171,0.5509
1.6172,0.5508
1.6174,0.5507
1.6176,0.5508
1.6179,0.5508
1.6182,0.5509
1.6185,0.5511
1.6189,0.5512
1.6194,0.5514
1.6199,0.5517
1.6204,0.552
1.6209,0.5522
1.6212,0.5523
1.6215,0.5523
1.6217,0.5523
1.6219,0.5523
1.6221,0.5523
1.6224,0.5523
1.6227,0.5524
1.623,0.5525
1.6234,0.5525
1.6237,0.5526
1.6241,0.5528
1.6244,0.5529
1.6247,0.553
1.6251,0.5532
1.6254,0.5533
1.6257,0.5533
1.6261,0.5534
1.6264,0.5535
1.6268,0.5537
1.6273,0.5539
1.6277,0.5542
1.6281,0.5544
1.6284,0.5544
1.6286,0.5543
1.6288,0.5543
1.629,0.5544
1.6293,0.5543
1.6295,0.5544
1.6299,0.5544
1.6302,0.5545
1.6306,0.5547
1.6311,0.555
1.6317,0.5553
1.6322,0.5556
1.6326,0.5558
1.6329,0.5559
1.6331,0.5558
1.6333,0.5558
1.6335,0.5557
1.6337,0.5557
1.634,0.5557
1.6343,0.5558
1.6347,0.556
1.635,0.5561
1.6354,0.5562
1.6357,0.5563
1.6361,0.5564
1.6364,0.5565
1.6367,0.5565
1.637,0.5566
1.6374,0.5567
1.6378,0.557
1.6382,0.5572
1.6386,0.5573
1.6391,0.5575
1.6395,0.5577
1.6398,0.5578
1.6401,0.5577
1.6402,0.5577
1.6404,0.5577
1.6406,0.5577
1.6409,0.5577
1.6412,0.5578
1.6416,0.5579
1.642,0.5581
1.6424,0.5583
1.6429,0.5586
1.6435,0.5591
1.6439,0.5592
1.6442,0.5593
1.6444,0.5592
1.6446,0.5591
1.6448,0.5591
1.6451,0.5592
1.6453,0.5591
1.6457,0.5592
1.646,0.5592
1.6464,0.5593
1.6467,0.5595
1.6471,0.5597
1.6474,0.5598
1.6478,0.5599
1.6481,0.5599
1.6484,0.56
1.6488,0.5602
1.6491,0.5603
1.6495,0.5604
1.6499,0.5606
1.6504,0.5609
1.6508,0.5611
1.6512,0.5612
1.6514,0.5613
1.6516,0.5612
1.6518,0.5611
1.652,0.5611
1.6523,0.5612
1.6525,0.5612
1.6529,0.5612
1.6532,0.5613
1.6536,0.5616
1.6541,0.5618
1.6547,0.5622
1.6552,0.5624
1.6556,0.5625
1.6558,0.5625
1.656,0.5624
1.6562,0.5624
1.6565,0.5624
1.6567,0.5625
1.657,0.5625
1.6573,0.5625
1.6577,0.5626
1.658,0.5628
1.6584,0.563
1.6587,0.5632
1.6591,0.5633
1.6594,0.5633
1.6597,0.5634
1.6601,0.5635
1.6604,0.5636
1.6608,0.5638
1.6612,0.5639
1.6616,0.5641
1.6621,0.5643
1.6624,0.5645
1.6628,0.5645
1.663,0.5644
1.6632,0.5645
1.6634,0.5644
1.6636,0.5644
1.6639,0.5645
1.6642,0.5646
1.6645,0.5648
1.6649,0.5648
1.6654,0.565
1.6659,0.5653
1.6665,0.5656
1.6669,0.5659
1.6672,0.566
1.6674,0.5659
1.6676,0.5659
1.6678,0.5659
1.6681,0.5659
1.6684,0.5659
1.6687,0.5659
1.669,0.566
1.6693,0.5662
1.6697,0.5663
1.67,0.5664
1.6704,0.5665
1.6707,0.5666
1.671,0.5666
1.6713,0.5667
1.6717,0.5669
1.6721,0.5671
1.6724,0.5673
1.6729,0.5674
1.6733,0.5676
1.6738,0.5678
1.6741,0.5679
1.6744,0.5679
1.6746,0.5679
1.6748,0.5679
1.675,0.5678
1.6752,0.5679
1.6755,0.5679
1.6759,0.5681
1.6762,0.5682
1.6767,0.5684
1.6772,0.5687
1.6778,0.5691
1.6782,0.5693
1.6786,0.5693
1.6788,0.5692
1.679,0.5692
1.6792,0.5692
1.6794,0.5692
1.6797,0.5692
1.68,0.5692
1.6803,0.5694
1.6807,0.5695
1.681,0.5696
1.6814,0.5697
1.6817,0.5698
1.682,0.5699
1.6824,0.57
1.6827,0.5703
1.6831,0.5703
1.6834,0.5704
1.6838,0.5705
1.6842,0.5706
1.6846,0.5709
1.6851,0.5712
1.6855,0.5713
1.6858,0.5713
1.686,0.5714
1.6862,0.5713
1.6864,0.5712
1.6866,0.5713
1.6869,0.5713
1.6872,0.5714
1.6876,0.5715
1.688,0.5716
1.6884,0.5718
1.689,0.5721
1.6895,0.5724
1.6899,0.5726
1.6902,0.5727
1.6904,0.5726
1.6906,0.5725
1.6908,0.5725
1.6911,0.5725
1.6914,0.5727
1.6917,0.5728
1.692,0.5728
1.6924,0.5729
1.6928,0.5731
1.6931,0.5733
1.6934,0.5734
1.6938,0.5734
1.6941,0.5734
1.6944,0.5736
1.6948,0.5737
1.6951,0.5739
1.6955,0.574
1.696,0.5741
1.6964,0.5743
1.6968,0.5745
1.6971,0.5746
1.6974,0.5746
1.6976,0.5745
1.6977,0.5745
1.698,0.5745
1.6982,0.5746
1.6985,0.5746
1.6988,0.5747
1.6992,0.5749
1.6997,0.5751
1.7002,0.5753
1.7008,0.5757
1.7013,0.5759
1.7016,0.5759
1.7018,0.576
1.702,0.576
1.7022,0.576
1.7024,0.5759
1.7027,0.5759
1.703,0.576
1.7033,0.576
1.7037,0.5762
1.7041,0.5764
1.7044,0.5765
1.7048,0.5766
1.7051,0.5766
1.7054,0.5767
1.7057,0.5768
1.706,0.577
1.7064,0.5771
1.7068,0.5771
1.7072,0.5773
1.7077,0.5774
1.7081,0.5777
1.7085,0.5779
1.7088,0.5779
1.709,0.5779
1.7092,0.5778
1.7094,0.5778
1.7096,0.5779
1.7099,0.5779
1.7102,0.5779
1.7106,0.578
1.711,0.5782
1.7115,0.5786
1.712,0.5788
1.7126,0.5791
1.713,0.5793
1.7132,0.5793
1.7134,0.5793
1.7136,0.5792
1.7138,0.5791
1.7141,0.5792
1.7144,0.5792
1.7147,0.5793
1.715,0.5794
1.7153,0.5797
1.7157,0.5797
1.716,0.5797
1.7164,0.5798
1.7167,0.58
1.717,0.5801
1.7174,0.5802
1.7177,0.5803
1.7181,0.5804
1.7185,0.5806
1.7189,0.5808
1.7194,0.581
1.7198,0.5812
1.7201,0.5813
1.7204,0.5812
1.7206,0.5812
1.7208,0.5811
1.721,0.5812
1.7212,0.5812
1.7215,0.5812
1.7219,0.5813
1.7223,0.5815
1.7227,0.5817
1.7232,0.582
1.7238,0.5823
1.7242,0.5825
1.7245,0.5826
1.7247,0.5825
1.7249,0.5824
1.7252,0.5824
1.7254,0.5824
1.7257,0.5824
1.726,0.5824
1.7263,0.5826
1.7267,0.5828
1.727,0.5829
1.7274,0.583
1.7277,0.5831
1.728,0.5832
1.7284,0.5832
1.7287,0.5833
1.7291,0.5834
1.7294,0.5836
1.7298,0.5838
1.7302,0.584
1.7307,0.5843
1.7311,0.5843
1.7315,0.5844
1.7317,0.5844
1.7319,0.5843
1.7321,0.5843
1.7323,0.5843
1.7326,0.5843
1.7329,0.5844
1.7332,0.5844
1.7336,0.5846
1.734,0.5848
1.7345,0.5851
1.735,0.5853
1.7355,0.5856
1.7359,0.5858
1.7362,0.5857
1.7364,0.5857
1.7366,0.5856
1.7368,0.5857
1.7371,0.5857
1.7374,0.5857
1.7377,0.5858
1.738,0.586
1.7384,0.5861
1.7388,0.5861
1.7391,0.5863
1.7394,0.5865
1.7397,0.5865
1.74,0.5866
1.7404,0.5867
1.7407,0.5868
1.7411,0.5869
1.7415,0.5871
1.7419,0.5872
1.7424,0.5875
1.7428,0.5876
1.7431,0.5877
1.7433,0.5875
1.7435,0.5874
1.7437,0.5875
1.7439,0.5876
1.7442,0.5877
1.7445,0.5877
1.7449,0.5878
1.7453,0.588
1.7458,0.5882
1.7463,0.5885
1.7469,0.5887
1.7473,0.5888
1.7475,0.5889
1.7477,0.5889
1.7479,0.5889
1.7482,0.5889
1.7484,0.5888
1.7487,0.5889
1.749,0.589
1.7494,0.5891
1.7497,0.5893
1.75,0.5894
1.7504,0.5895
1.7507,0.5895
1.751,0.5895
1.7513,0.5896
1.7517,0.5898
1.752,0.5899
1.7524,0.59
1.7528,0.5902
1.7532,0.5904
1.7537,0.5906
1.7542,0.5908
1.7545,0.5909
1.7547,0.5909
1.7549,0.5909
1.7551,0.5908
1.7553,0.5907
1.7556,0.5908
1.7559,0.5909
1.7562,0.591
1.7566,0.591
1.7571,0.5912
1.7576,0.5916
1.7581,0.5919
1.7586,0.5921
1.7589,0.5921
1.7591,0.5921
1.7593,0.5921
1.7595,0.592
1.7597,0.5921
1.76,0.592
1.7603,0.592
1.7606,0.5923
1.761,0.5924
1.7614,0.5925
1.7617,0.5925
1.7621,0.5925
1.7624,0.5927
1.7627,0.5928
1.763,0.5929
1.7634,0.5931
1.7638,0.5932
1.7641,0.5933
1.7646,0.5935
1.765,0.5937
1.7654,0.5939
1.7658,0.594
1.7661,0.594
1.7663,0.5941
1.7665,0.594
1.7667,0.5939
1.7669,0.5939
1.7672,0.5939
1.7675,0.594
1.7679,0.5941
1.7683,0.5943
1.7688,0.5946
1.7693,0.5949
1.7699,0.5952
1.7703,0.5953
1.7705,0.5954
1.7707,0.5953
1.7709,0.5952
1.7711,0.5951
1.7714,0.5952
1.7717,0.5953
1.772,0.5955
1.7723,0.5955
1.7727,0.5957
1.7731,0.5958
1.7734,0.5959
1.7737,0.5959
1.774,0.596
1.7744,0.5961
1.7747,0.5962
1.7751,0.5963
1.7754,0.5964
1.7758,0.5966
1.7763,0.5967
1.7768,0.597
1.7772,0.5971
1.7775,0.5972
1.7777,0.5972
1.7779,0.5971
1.7781,0.597
1.7783,0.5971
1.7785,0.5972
1.7788,0.5973
1.7792,0.5973
1.7796,0.5974
1.78,0.5976
1.7806,0.5979
1.7811,0.5982
1.7816,0.5985
1.7819,0.5987
1.7821,0.5986
1.7823,0.5984
1.7825,0.5984
1.7828,0.5983
1.783,0.5983
1.7834,0.5984
1.7837,0.5986
1.784,0.5987
1.7844,0.5988
1.7847,0.5989
1.7851,0.5989
1.7854,0.5989
1.7857,0.5991
1.786,0.5993
1.7864,0.5994
1.7867,0.5994
1.7871,0.5995
1.7875,0.5998
1.788,0.6
1.7884,0.6002
1.7888,0.6003
1.7891,0.6003
1.7893,0.6003
1.7895,0.6003
1.7897,0.6003
1.7899,0.6002
1.7902,0.6002
1.7905,0.6003
1.7909,0.6004
1.7913,0.6006
1.7918,0.6009
1.7924,0.6012
1.7929,0.6015
1.7933,0.6017
1.7935,0.6016
1.7937,0.6015
1.7939,0.6015
1.7941,0.6015
1.7944,0.6015
1.7947,0.6015
1.795,0.6016
1.7953,0.6017
1.7957,0.6018
1.796,0.602
1.7964,0.6022
1.7967,0.6022
1.797,0.6023
1.7974,0.6024
1.7977,0.6025
1.7981,0.6026
1.7984,0.6026
1.7989,0.6028
1.7993,0.603
1.7997,0.6033
1.8001,0.6034
1.8004,0.6034
1.8007,0.6034
1.8009,0.6033
1.8011,0.6033
1.8013,0.6034
1.8016,0.6034
1.8019,0.6035
1.8022,0.6036
1.8026,0.6038
1.8031,0.604
1.8036,0.6042
1.8041,0.6045
1.8046,0.6047
1.8049,0.6046
1.8051,0.6046
1.8053,0.6045
1.8055,0.6045
1.8057,0.6047
1.806,0.6047
1.8063,0.6048
1.8066,0.6048
1.807,0.6049
1.8074,0.605
1.8077,0.6052
1.808,0.6053
1.8084,0.6054
1.8087,0.6054
1.809,0.6055
1.8094,0.6056
1.8098,0.6057
1.8101,0.6059
1.8106,0.606
1.811,0.6063
1.8114,0.6065
1.8118,0.6066
1.8121,0.6066
1.8123,0.6067
1.8124,0.6065
1.8127,0.6065
1.8129,0.6065
1.8132,0.6065
1.8135,0.6066
1.8139,0.6068
1.8143,0.607
1.8149,0.6072
1.8154,0.6075
1.8159,0.6077
1.8163,0.6079
1.8165,0.6079
1.8167,0.6079
1.8169,0.6077
1.8171,0.6077
1.8174,0.6078
1.8177,0.6078
1.818,0.6078
1.8183,0.608
1.8187,0.6082
1.8191,0.6082
1.8194,0.6082
1.8197,0.6083
1.82,0.6085
1.8204,0.6085
1.8207,0.6086
1.8211,0.6087
1.8215,0.6089
1.8219,0.6091
1.8223,0.6092
1.8228,0.6095
1.8232,0.6097
1.8235,0.6097
1.8237,0.6097
1.8239,0.6095
1.8241,0.6095
1.8243,0.6095
1.8246,0.6096
1.8249,0.6097
1.8252,0.6098
1.8256,0.6099
1.8261,0.6101
1.8266,0.6103
1.8271,0.6107
1.8276,0.6108
1.8279,0.6108
1.8281,0.6108
1.8283,0.6107
1.8285,0.6106
1.8288,0.6106
1.8291,0.6108
1.8294,0.6109
1.8297,0.611
1.83,0.611
1.8304,0.6111
1.8307,0.6112
1.831,0.6114
1.8314,0.6114
1.8317,0.6116
1.832,0.6117
1.8324,0.6117
1.8327,0.6119
1.8331,0.612
1.8336,0.6122
1.834,0.6125
1.8345,0.6126
1.8348,0.6127
1.8351,0.6126
1.8353,0.6125
1.8355,0.6126
1.8357,0.6126
1.8359,0.6125
1.8362,0.6125
1.8365,0.6126
1.8369,0.6128
1.8373,0.613
1.8378,0.6133
1.8384,0.6136
1.8389,0.6138
1.8392,0.6139
1.8395,0.6139
1.8397,0.6139
1.8399,0.6138
1.8401,0.6138
1.8404,0.6139
1.8407,0.6139
1.841,0.6139
1.8413,0.614
1.8417,0.6142
1.842,0.6144
1.8424,0.6145
1.8427,0.6145
1.843,0.6145
1.8433,0.6145
1.8437,0.6147
1.8441,0.6149
1.8444,0.615
1.8449,0.6152
1.8453,0.6153
1.8458,0.6156
1.8461,0.6157
1.8464,0.6157
1.8467,0.6156
1.8469,0.6157
1.8471,0.6156
1.8473,0.6156
1.8476,0.6157
1.8479,0.6158
1.8482,0.6158
1.8486,0.6158
1.8491,0.6161
1.8496,0.6164
1.8501,0.6168
1.8506,0.617
1.8509,0.617
1.8511,0.6169
1.8513,0.6168
1.8515,0.6168
1.8517,0.6168
1.852,0.6168
1.8523,0.6168
1.8526,0.617
1.853,0.6172
1.8534,0.6173
1.8537,0.6175
1.8541,0.6175
1.8544,0.6175
1.8547,0.6176
1.855,0.6176
1.8554,0.6177
1.8557,0.6178
1.8561,0.6181
1.8565,0.6183
1.857,0.6185
1.8574,0.6187
1.8578,0.6188
1.8581,0.6188
1.8583,0.6187
1.8584,0.6185
1.8587,0.6185
1.8589,0.6185
1.8592,0.6187
1.8595,0.6188
1.8599,0.6189
1.8603,0.6191
1.8608,0.6193
1.8614,0.6196
1.8619,0.6198
1.8623,0.6199
1.8625,0.6199
1.8627,0.6198
1.8629,0.6198
1.8631,0.6198
1.8634,0.6198
1.8637,0.6199
1.864,0.62
1.8644,0.6201
1.8647,0.6202
1.8651,0.6203
1.8654,0.6204
1.8657,0.6204
1.866,0.6205
1.8664,0.6206
1.8667,0.6207
1.8671,0.6209
1.8675,0.621
1.8679,0.6211
1.8683,0.6213
1.8687,0.6215
1.8691,0.6216
1.8694,0.6216
1.8697,0.6216
1.8698,0.6215
1.87,0.6215
1.8703,0.6215
1.8706,0.6215
1.8709,0.6215
1.8712,0.6217
1.8716,0.6219
1.8721,0.6222
1.8727,0.6224
1.8732,0.6227
1.8736,0.6229
1.8739,0.6229
1.8741,0.6228
1.8743,0.6227
1.8745,0.6227
1.8747,0.6227
1.875,0.6228
1.8753,0.6227
1.8757,0.6229
1.876,0.623
1.8764,0.6231
1.8767,0.6232
1.8771,0.6234
1.8774,0.6234
1.8777,0.6235
1.8781,0.6236
1.8784,0.6236
1.8788,0.6238
1.8791,0.6239
1.8796,0.6241
1.88,0.6242
1.8805,0.6245
1.8808,0.6246
1.8811,0.6246
1.8813,0.6246
1.8814,0.6245
1.8816,0.6245
1.8819,0.6244
1.8822,0.6245
1.8825,0.6245
1.8829,0.6247
1.8834,0.6249
1.8839,0.6252
1.8844,0.6255
1.8849,0.6256
1.8853,0.6257
1.8855,0.6258
1.8857,0.6256
1.8859,0.6255
1.8861,0.6256
1.8864,0.6257
1.8867,0.6258
1.887,0.6258
1.8873,0.6259
1.8877,0.6261
1.8881,0.6261
1.8884,0.6261
1.8887,0.6262
1.8891,0.6264
1.8894,0.6264
1.8897,0.6265
1.8901,0.6266
1.8905,0.6268
1.8909,0.6269
1.8913,0.6271
1.8918,0.6274
1.8921,0.6274
1.8924,0.6275
1.8926,0.6275
1.8928,0.6275
1.893,0.6273
1.8933,0.6272
1.8936,0.6273
1.8939,0.6273
1.8942,0.6275
1.8946,0.6278
1.8951,0.628
1.8956,0.6283
1.8962,0.6285
1.8966,0.6287
1.8968,0.6286
1.897,0.6285
1.8972,0.6285
1.8975,0.6285
1.8977,0.6285
1.898,0.6285
1.8983,0.6286
1.8987,0.6288
1.899,0.6289
1.8994,0.629
1.8997,0.6292
1.9001,0.6292
1.9004,0.6293
1.9007,0.6293
1.901,0.6294
1.9014,0.6295
1.9018,0.6296
1.9022,0.6298
1.9026,0.63
1.9031,0.6302
1.9035,0.6303
1.9038,0.6304
1.904,0.6304
1.9042,0.6303
1.9044,0.6302
1.9046,0.6303
1.9049,0.6303
1.9052,0.6304
1.9055,0.6304
1.9059,0.6305
1.9064,0.6307
1.9069,0.631
1.9074,0.6312
1.9079,0.6315
1.9082,0.6316
1.9085,0.6315
1.9086,0.6314
1.9089,0.6314
1.9091,0.6315
1.9094,0.6315
1.9097,0.6314
1.91,0.6315
1.9104,0.6317
1.9107,0.6318
1.9111,0.6319
1.9114,0.632
1.9117,0.6321
1.9121,0.6322
1.9124,0.6322
1.9127,0.6323
1.9131,0.6324
1.9134,0.6325
1.9139,0.6327
1.9143,0.6329
1.9147,0.6331
1.9151,0.6332
1.9154,0.6331
1.9156,0.6331
1.9158,0.6331
1.916,0.6331
1.9163,0.6331
1.9166,0.6331
1.9169,0.6332
1.9172,0.6332
1.9177,0.6334
1.9182,0.6337
1.9187,0.6339
1.9192,0.6342
1.9196,0.6344
1.9199,0.6343
1.92,0.6342
1.9202,0.6342
1.9205,0.6342
1.9207,0.6342
1.921,0.6342
1.9213,0.6343
1.9217,0.6344
1.922,0.6345
1.9224,0.6346
1.9227,0.6348
1.923,0.6348
1.9234,0.6348
1.9237,0.6349
1.924,0.6351
1.9244,0.6352
1.9248,0.6353
1.9252,0.6354
1.9256,0.6356
1.9261,0.6358
1.9265,0.636
1.9268,0.6361
1.927,0.636
1.9272,0.6359
1.9274,0.6357
1.9276,0.6358
1.9279,0.6359
1.9282,0.636
1.9286,0.636
1.929,0.6362
1.9294,0.6364
1.93,0.6368
1.9305,0.637
1.9309,0.6372
1.9312,0.6372
1.9314,0.6371
1.9316,0.637
1.9318,0.637
1.9321,0.637
1.9323,0.637
1.9327,0.6371
1.933,0.6372
1.9334,0.6373
1.9337,0.6375
1.9341,0.6375
1.9344,0.6376
1.9347,0.6376
1.9351,0.6377
1.9354,0.6377
1.9357,0.6379
1.9361,0.6381
1.9365,0.6381
1.9369,0.6382
1.9374,0.6385
1.9378,0.6387
1.9382,0.6388
1.9384,0.6388
1.9386,0.6387
1.9388,0.6388
1.939,0.6387
1.9392,0.6387
1.9395,0.6386
1.9398,0.6387
1.9402,0.6389
1.9407,0.6391
1.9412,0.6394
1.9417,0.6396
1.9422,0.6398
1.9426,0.64
1.9428,0.6399
1.943,0.6399
1.9432,0.6398
1.9434,0.6399
1.9437,0.6399
1.944,0.6399
1.9443,0.6399
1.9447,0.6399
1.9451,0.6401
1.9454,0.6404
1.9458,0.6404
1.9461,0.6404
1.9464,0.6405
1.9467,0.6406
1.947,0.6407
1.9474,0.6408
1.9478,0.6409
1.9482,0.6411
1.9486,0.6413
1.9491,0.6414
1.9495,0.6416
1.9498,0.6416
1.95,0.6416
1.9502,0.6415
1.9504,0.6415
1.9506,0.6416
1.9509,0.6416
1.9512,0.6415
1.9516,0.6416
1.952,0.6418
1.9524,0.642
1.953,0.6423
1.9535,0.6426
1.9539,0.6428
1.9542,0.6428
1.9544,0.6426
1.9546,0.6425
1.9548,0.6425
1.9551,0.6425
1.9554,0.6426
1.9557,0.6426
1.956,0.6427
1.9564,0.6428
1.9567,0.643
1.9571,0.6431
1.9574,0.6431
1.9577,0.6431
1.958,0.6431
1.9584,0.6432
1.9587,0.6434
1.9591,0.6435
1.9595,0.6437
1.9599,0.6438
1.9604,0.644
1.9608,0.6442
1.9611,0.6443
1.9614,0.6444
1.9616,0.6443
1.9618,0.6442
1.962,0.6441
1.9623,0.6442
1.9625,0.6443
1.9629,0.6443
1.9632,0.6444
1.9637,0.6446
1.9642,0.6449
1.9647,0.6452
1.9652,0.6454
1.9656,0.6454
1.9658,0.6453
1.966,0.6452
1.9662,0.6452
1.9664,0.6453
1.9667,0.6453
1.967,0.6453
1.9673,0.6454
1.9677,0.6455
1.968,0.6456
1.9684,0.6457
1.9687,0.6458
1.969,0.6459
1.9694,0.646
1.9697,0.646
1.97,0.646
1.9704,0.6462
1.9708,0.6464
1.9712,0.6466
1.9716,0.6467
1.9721,0.6468
1.9725,0.6469
1.9727,0.6469
1.973,0.6469
1.9731,0.6469
1.9733,0.6468
1.9736,0.6468
1.9739,0.6468
1.9742,0.6469
1.9746,0.6471
1.975,0.6473
1.9755,0.6475
1.976,0.6477
1.9765,0.648
1.9769,0.648
1.9772,0.648
1.9774,0.648
1.9776,0.6481
1.9778,0.648
1.9781,0.648
1.9784,0.648
1.9787,0.648
1.979,0.6481
1.9794,0.6483
1.9798,0.6483
1.9801,0.6484
1.9804,0.6485
1.9807,0.6486
1.981,0.6486
1.9813,0.6487
1.9817,0.6488
1.9821,0.6489
1.9825,0.6491
1.9829,0.6492
1.9834,0.6493
1.9838,0.6495
1.9841,0.6495
1.9844,0.6496
1.9845,0.6496
1.9847,0.6495
1.985,0.6495
1.9852,0.6495
1.9855,0.6495
1.9859,0.6496
1.9863,0.6498
1.9867,0.65
1.9873,0.6502
1.9878,0.6505
1.9883,0.6507
1.9885,0.6506
1.9888,0.6506
1.9889,0.6506
1.9891,0.6505
1.9894,0.6505
1.9897,0.6506
1.99,0.6507
1.9904,0.6507
1.9907,0.6508
1.9911,0.6509
1.9914,0.651
1.9917,0.6511
1.9921,0.6512
1.9924,0.6512
1.9927,0.6513
1.993,0.6515
1.9934,0.6516
1.9938,0.6517
1.9942,0.6518
1.9947,0.6521
1.9951,0.6522
1.9955,0.6523
1.9958,0.6523
1.996,0.6522
1.9961,0.6521
1.9964,0.652
1.9966,0.652
1.9969,0.652
1.9972,0.6522
1.9976,0.6523
1.998,0.6524
1.9985,0.6526
1.9991,0.6529
1.9996,0.6532
1.9999,0.6533
2.0001,0.6533
2.0003,0.6532
2.0005,0.6532
2.0008,0.6531
2.0011,0.6531
2.0014,0.6531
2.0017,0.6532
2.002,0.6534
2.0024,0.6535
2.0027,0.6535
2.0031,0.6536
2.0034,0.6538
2.0037,0.6538
2.0041,0.6538
2.0044,0.654
2.0048,0.654
2.0051,0.6541
2.0055,0.6542
2.006,0.6545
2.0064,0.6547
2.0068,0.6548
2.0071,0.6547
2.0073,0.6547
2.0075,0.6547
2.0077,0.6547
2.008,0.6546
2.0082,0.6547
2.0085,0.6546
2.0089,0.6547
2.0093,0.6549
2.0098,0.6551
2.0103,0.6555
2.0109,0.6557
2.0113,0.6559
2.0116,0.6558
2.0117,0.6558
2.0119,0.6557
2.0121,0.6556
2.0124,0.6556
2.0127,0.6556
2.013,0.6557
2.0133,0.6558
2.0137,0.6559
2.0141,0.6561
2.0144,0.6563
2.0147,0.6563
2.015,0.6563
2.0154,0.6563
2.0157,0.6564
2.016,0.6565
2.0164,0.6566
2.0168,0.6567
2.0172,0.6569
2.0177,0.657
2.0182,0.6572
2.0185,0.6573
2.0187,0.6572
2.0189,0.6571
2.0191,0.6571
2.0193,0.6571
2.0196,0.6572
2.0199,0.6571
2.0202,0.6571
2.0206,0.6574
2.021,0.6576
2.0215,0.6577
2.0221,0.658
2.0226,0.6582
2.0229,0.6582
2.0231,0.6582
2.0233,0.6582
2.0235,0.6581
2.0238,0.658
2.024,0.6581
2.0244,0.6582
2.0247,0.6584
2.025,0.6584
2.0254,0.6585
2.0257,0.6586
2.0261,0.6587
2.0264,0.6587
2.0267,0.6587
2.027,0.6588
2.0274,0.6589
2.0277,0.659
2.0281,0.6592
2.0285,0.6593
2.029,0.6595
2.0294,0.6596
2.0298,0.6596
2.0301,0.6596
2.0303,0.6596
2.0305,0.6597
2.0307,0.6596
2.0309,0.6596
2.0312,0.6596
2.0315,0.6596
2.0319,0.6596
2.0323,0.6599
2.0328,0.6601
2.0333,0.6604
2.0338,0.6607
2.0342,0.6608
2.0345,0.6607
2.0347,0.6607
2.0349,0.6607
2.0351,0.6606
2.0354,0.6606
2.0357,0.6606
2.036,0.6606
2.0363,0.6607
2.0367,0.6609
2.037,0.6609
2.0374,0.661
2.0377,0.6611
2.038,0.6612
2.0384,0.6613
2.0387,0.6613
2.0391,0.6613
2.0394,0.6614
2.0398,0.6615
2.0403,0.6617
2.0407,0.6619
2.0411,0.662
2.0414,0.6621
2.0417,0.6621
2.0419,0.662
2.0421,0.662
2.0423,0.6621
2.0426,0.662
2.0429,0.662
2.0432,0.6621
2.0436,0.6623
2.044,0.6626
2.0445,0.6628
2.0451,0.6629
2.0456,0.663
2.0459,0.6631
2.0461,0.6631
2.0463,0.6631
2.0465,0.663
2.0468,0.663
2.047,0.663
2.0473,0.6631
2.0477,0.6631
2.048,0.6632
2.0484,0.6632
2.0487,0.6633
2.0491,0.6634
2.0494,0.6635
2.0497,0.6635
2.05,0.6635
2.0504,0.6636
2.0507,0.6638
2.0511,0.664
2.0516,0.6641
2.052,0.6642
2.0524,0.6644
2.0528,0.6645
2.0531,0.6645
2.0533,0.6644
2.0535,0.6644
2.0537,0.6644
2.0539,0.6644
2.0542,0.6644
2.0545,0.6645
2.0549,0.6645
2.0553,0.6646
2.0558,0.6649
2.0564,0.6653
2.0569,0.6655
2.0573,0.6655
2.0575,0.6654
2.0577,0.6654
2.0579,0.6653
2.0581,0.6654
2.0584,0.6654
2.0587,0.6653
2.059,0.6653
2.0593,0.6654
2.0597,0.6656
2.06,0.6656
2.0604,0.6656
2.0607,0.6657
2.061,0.6659
2.0614,0.666
2.0617,0.666
2.062,0.6661
2.0624,0.6662
2.0628,0.6663
2.0633,0.6665
2.0638,0.6666
2.0642,0.6668
2.0645,0.667
2.0647,0.6669
2.0649,0.6668
2.0651,0.6667
2.0653,0.6666
2.0656,0.6666
2.0659,0.6668
2.0662,0.6669
2.0666,0.667
2.067,0.6671
2.0675,0.6673
2.0681,0.6676
2.0686,0.6678
2.0689,0.6678
2.0692,0.6677
2.0693,0.6677
2.0695,0.6677
2.0698,0.6677
2.0701,0.6677
2.0704,0.6678
2.0707,0.6678
2.071,0.6679
2.0714,0.6679
2.0717,0.668
2.0721,0.668
2.0724,0.6681
2.0727,0.6682
2.073,0.6683
2.0734,0.6684
2.0738,0.6684
2.0741,0.6684
2.0746,0.6687
2.075,0.6689
2.0754,0.6691
2.0758,0.6691
2.0761,0.669
2.0763,0.669
2.0765,0.669
2.0767,0.6689
2.0769,0.6688
2.0772,0.6688
2.0775,0.6689
2.0779,0.6691
2.0783,0.6692
2.0788,0.6695
2.0793,0.6697
2.0799,0.67
2.0802,0.67
2.0805,0.6701
2.0807,0.6699
2.0809,0.6698
2.0811,0.6698
2.0814,0.6699
2.0817,0.6699
2.082,0.6699
2.0823,0.67
2.0827,0.6701
2.083,0.6702
2.0834,0.6702
2.0837,0.6703
2.084,0.6704
2.0843,0.6704
2.0847,0.6706
2.085,0.6707
2.0854,0.6707
2.0858,0.6708
2.0863,0.6709
2.0867,0.6711
2.0871,0.6713
2.0875,0.6714
2.0877,0.6713
2.0879,0.6712
2.0881,0.6711
2.0883,0.6711
2.0886,0.6711
2.0889,0.671
2.0892,0.6712
2.0896,0.6713
2.0901,0.6715
2.0906,0.6718
2.0911,0.672
2.0916,0.6721
2.0919,0.6721
2.0921,0.6721
2.0923,0.6721
2.0925,0.6721
2.0927,0.672
2.093,0.6719
2.0933,0.672
2.0936,0.6721
2.094,0.6722
2.0944,0.6723
2.0947,0.6724
2.0951,0.6725
2.0954,0.6724
2.0957,0.6724
2.096,0.6725
2.0964,0.6727
2.0967,0.6728
2.0971,0.6729
2.0975,0.6731
2.098,0.6733
2.0984,0.6733
2.0988,0.6734
2.0991,0.6734
2.0993,0.6733
2.0995,0.6733
2.0997,0.6732
2.0999,0.6731
2.1002,0.6732
2.1005,0.6732
2.1009,0.6734
2.1013,0.6735
2.1018,0.6738
2.1023,0.6741
2.1028,0.6743
2.1032,0.6743
2.1035,0.6743
2.1037,0.6742
2.1039,0.6742
2.1041,0.6742
2.1044,0.6741
2.1047,0.6741
2.105,0.6742
2.1053,0.6743
2.1057,0.6743
2.1061,0.6743
2.1064,0.6744
2.1067,0.6745
2.1071,0.6746
2.1074,0.6747
2.1077,0.6746
2.1081,0.6747
2.1084,0.6749
2.1088,0.675
2.1093,0.6752
2.1097,0.6754
2.1101,0.6755
2.1105,0.6754
2.1107,0.6754
2.1109,0.6754
2.1111,0.6753
2.1113,0.6752
2.1116,0.6752
2.1119,0.6753
2.1122,0.6754
2.1126,0.6755
2.1131,0.6756
2.1136,0.6759
2.1141,0.6762
2.1146,0.6763
2.1149,0.6764
2.1151,0.6763
2.1153,0.6762
2.1155,0.6762
2.1158,0.6762
2.116,0.6762
2.1163,0.6762
2.1167,0.6762
2.117,0.6762
2.1174,0.6764
2.1177,0.6764
2.1181,0.6765
2.1184,0.6765
2.1187,0.6766
2.119,0.6767
2.1194,0.6766
2.1197,0.6768
2.1201,0.677
2.1205,0.677
2.121,0.6771
2.1214,0.6774
2.1218,0.6775
2.1221,0.6774
2.1223,0.6773
2.1225,0.6773
2.1227,0.6773
2.1229,0.6773
2.1232,0.6772
2.1235,0.6773
2.1239,0.6773
2.1243,0.6774
2.1248,0.6777
2.1254,0.678
2.1259,0.6783
2.1263,0.6784
2.1265,0.6783
2.1267,0.6782
2.1269,0.6782
2.1271,0.678
2.1274,0.6779
2.1277,0.678
2.128,0.6782
2.1284,0.6783
2.1287,0.6782
2.1291,0.6783
2.1294,0.6784
2.1297,0.6785
2.1301,0.6785
2.1304,0.6786
2.1307,0.6786
2.1311,0.6787
2.1315,0.6788
2.1319,0.6789
2.1323,0.679
2.1327,0.6792
2.1331,0.6792
2.1334,0.6793
2.1337,0.6793
2.1339,0.6792
2.1341,0.6791
2.1343,0.6791
2.1346,0.6791
2.1349,0.6791
2.1352,0.6791
2.1356,0.6793
2.1361,0.6796
2.1366,0.6797
2.1371,0.6799
2.1376,0.6801
2.1379,0.6802
2.1381,0.6802
2.1383,0.6799
2.1385,0.6799
2.1387,0.6798
2.139,0.6797
2.1393,0.6798
2.1397,0.6799
2.14,0.68
2.1404,0.68
2.1407,0.6801
2.1411,0.6802
2.1414,0.6802
2.1417,0.6803
2.1421,0.6803
2.1424,0.6804
2.1428,0.6805
2.1432,0.6806
2.1436,0.6808
2.144,0.6809
2.1445,0.6811
2.1448,0.6811
2.1451,0.6811
2.1452,0.681
2.1454,0.6809
2.1456,0.6808
2.1459,0.6807
2.1462,0.6809
2.1465,0.6809
2.1469,0.681
2.1473,0.6812
2.1478,0.6814
2.1484,0.6816
2.1489,0.6818
2.1492,0.682
2.1495,0.682
2.1497,0.6818
2.1499,0.6817
2.1501,0.6817
2.1504,0.6816
2.1507,0.6816
2.151,0.6818
2.1514,0.6818
2.1517,0.6818
2.1521,0.682
2.1524,0.6821
2.1527,0.6821
2.1531,0.6822
2.1534,0.6822
2.1537,0.6823
2.1541,0.6823
2.1544,0.6824
2.1548,0.6825
2.1553,0.6827
2.1557,0.6828
2.1561,0.6829
2.1564,0.6829
2.1567,0.683
2.1568,0.6828
2.157,0.6827
2.1573,0.6827
2.1576,0.6826
2.1579,0.6826
2.1582,0.6828
2.1586,0.6829
2.1591,0.683
2.1597,0.6833
2.1602,0.6836
2.1606,0.6838
2.1609,0.6838
2.1611,0.6837
2.1613,0.6835
2.1615,0.6834
2.1617,0.6833
2.162,0.6834
2.1623,0.6834
2.1627,0.6835
2.163,0.6836
2.1634,0.6836
2.1637,0.6837
2.164,0.6839
2.1644,0.684
2.1647,0.6839
2.165,0.6839
2.1654,0.6841
2.1657,0.6843
2.1661,0.6843
2.1666,0.6844
2.167,0.6846
2.1675,0.6848
2.1678,0.6848
2.168,0.6847
2.1682,0.6846
2.1684,0.6846
2.1686,0.6845
2.1689,0.6845
2.1692,0.6845
2.1695,0.6845
2.1699,0.6847
2.1704,0.6849
2.1709,0.6852
2.1715,0.6855
2.1719,0.6856
2.1722,0.6856
2.1724,0.6855
2.1726,0.6853
2.1728,0.6852
2.1731,0.6852
2.1734,0.6853
2.1737,0.6853
2.174,0.6855
2.1744,0.6855
2.1747,0.6856
2.1751,0.6857
2.1754,0.6856
2.1757,0.6857
2.1761,0.6858
2.1764,0.6858
2.1767,0.6859
2.1771,0.686
2.1775,0.6861
2.1779,0.6862
2.1783,0.6863
2.1788,0.6865
2.1792,0.6866
2.1794,0.6866
2.1796,0.6865
2.1798,0.6865
2.18,0.6863
2.1803,0.6862
2.1805,0.6861
2.1808,0.6862
2.1812,0.6864
2.1816,0.6865
2.1821,0.6868
2.1827,0.6871
2.1832,0.6873
2.1836,0.6874
2.1839,0.6873
2.1841,0.6873
2.1843,0.6872
2.1845,0.6871
2.1847,0.6871
2.185,0.6871
2.1853,0.6872
2.1857,0.6873
2.1861,0.6874
2.1864,0.6874
2.1868,0.6875
2.1871,0.6875
2.1874,0.6875
2.1877,0.6876
2.188,0.6877
2.1884,0.6877
2.1888,0.6877
2.1892,0.6878
2.1896,0.6879
2.1901,0.6881
2.1905,0.6883
2.1908,0.6883
2.191,0.6883
2.1912,0.6882
2.1914,0.6882
2.1916,0.688
2.1919,0.6879
2.1922,0.688
2.1925,0.6882
2.1929,0.6883
2.1934,0.6885
2.1939,0.6886
2.1945,0.6888
2.1949,0.689
2.1952,0.689
2.1954,0.6889
2.1956,0.6888
2.1958,0.6888
2.1961,0.6888
2.1964,0.6889
2.1967,0.6888
2.197,0.6889
2.1974,0.689
2.1977,0.689
2.1981,0.6891
2.1984,0.6892
2.1987,0.6892
2.199,0.6892
2.1994,0.6893
2.1997,0.6894
2.2001,0.6894
2.2005,0.6895
2.2009,0.6897
2.2013,0.6899
2.2018,0.69
2.2021,0.69
2.2024,0.69
2.2026,0.6899
2.2028,0.6899
2.203,0.6898
2.2033,0.6898
2.2035,0.6898
2.2039,0.6897
2.2042,0.6898
2.2047,0.69
2.2052,0.6902
2.2057,0.6905
2.2062,0.6907
2.2066,0.6908
2.2068,0.6907
2.207,0.6906
2.2072,0.6905
2.2074,0.6903
2.2077,0.6903
2.208,0.6904
2.2083,0.6905
2.2087,0.6906
2.209,0.6906
2.2094,0.6907
2.2097,0.6907
2.21,0.6908
2.2104,0.6909
2.2107,0.6909
2.211,0.6909
2.2114,0.6909
2.2117,0.6911
2.2121,0.6912
2.2126,0.6913
2.213,0.6914
2.2134,0.6916
2.2137,0.6916
2.214,0.6915
2.2142,0.6915
2.2144,0.6914
2.2146,0.6912
2.2149,0.6911
2.2152,0.6913
2.2156,0.6915
2.216,0.6916
2.2164,0.6917
2.217,0.6919
2.2175,0.6922
2.2179,0.6923
2.2182,0.6922
2.2184,0.692
2.2186,0.6918
2.2188,0.6919
2.2191,0.6919
2.2194,0.692
2.2197,0.6921
2.22,0.692
2.2204,0.6921
2.2207,0.6922
2.2211,0.6923
2.2214,0.6923
2.2217,0.6922
2.222,0.6923
2.2223,0.6923
2.2227,0.6924
2.2231,0.6924
2.2235,0.6926
2.2239,0.6928
2.2244,0.6929
2.2248,0.693
2.2252,0.693
2.2254,0.693
2.2256,0.6928
2.2258,0.6927
2.226,0.6926
2.2263,0.6926
2.2265,0.6926
2.2269,0.6927
2.2273,0.6929
2.2277,0.693
2.2283,0.6932
2.2288,0.6934
2.2292,0.6935
2.2296,0.6935
2.2298,0.6934
2.23,0.6933
2.2302,0.6934
2.2304,0.6934
2.2307,0.6933
2.231,0.6932
2.2314,0.6933
2.2317,0.6934
2.2321,0.6935
2.2324,0.6936
2.2327,0.6936
2.2331,0.6936
2.2334,0.6936
2.2337,0.6936
2.234,0.6937
2.2344,0.6938
2.2348,0.6938
2.2352,0.6939
2.2357,0.6941
2.2361,0.6944
2.2365,0.6943
2.2368,0.6943
2.237,0.6942
2.2372,0.6942
2.2374,0.6941
2.2376,0.6939
2.2379,0.6938
2.2382,0.6939
2.2386,0.6941
2.239,0.6942
2.2395,0.6942
2.24,0.6946
2.2405,0.6948
2.2409,0.6948
2.2412,0.6948
2.2414,0.6947
2.2416,0.6946
2.2418,0.6945
2.2421,0.6945
2.2423,0.6946
2.2427,0.6946
2.243,0.6946
2.2434,0.6947
2.2437,0.6948
2.2441,0.6947
2.2444,0.6947
2.2447,0.6947
2.2451,0.6949
2.2454,0.695
2.2457,0.695
2.2461,0.6951
2.2465,0.6952
2.2469,0.6953
2.2474,0.6954
2.2478,0.6955
2.2481,0.6955
2.2484,0.6955
2.2486,0.6953
2.2488,0.6952
2.249,0.6952
2.2492,0.6952
2.2495,0.6952
2.2499,0.6952
2.2503,0.6953
2.2507,0.6954
2.2512,0.6958
2.2518,0.696
2.2522,0.6961
2.2526,0.6961
2.2528,0.6959
2.2529,0.6959
2.2532,0.6958
2.2534,0.6957
2.2537,0.6957
2.254,0.6957
2.2543,0.6957
2.2547,0.6957
2.255,0.6958
2.2554,0.6959
2.2557,0.6958
2.256,0.6958
2.2564,0.6958
2.2567,0.6958
2.2571,0.6958
2.2574,0.6959
2.2578,0.6959
2.2582,0.696
2.2587,0.6962
2.2591,0.6962
2.2595,0.6962
2.2598,0.6961
2.26,0.696
2.2601,0.696
2.2603,0.6959
2.2606,0.6958
2.2609,0.6957
2.2612,0.6956
2.2616,0.6956
2.262,0.6956
2.2625,0.6955
2.263,0.6956
2.2636,0.6957
2.2639,0.6955
2.2642,0.6952
2.2644,0.6949
2.2646,0.6945
2.2648,0.6942
2.2651,0.6942
2.2653,0.6941
2.2657,0.6941
2.266,0.6941
2.2664,0.6941
2.2667,0.6941
2.2671,0.6941
2.2674,0.694
2.2677,0.694
2.268,0.694
2.2684,0.6939
2.2687,0.6942
2.2691,0.6944
2.2695,0.6944
2.2699,0.6945
2.2704,0.6942
2.2708,0.6945
2.2711,0.6948
2.2713,0.6948
2.2715,0.6946
2.2717,0.6943
2.272,0.6943
2.2722,0.6944
2.2725,0.6944
2.2729,0.6945
2.2733,0.6946
2.2737,0.6946
2.2743,0.6948
2.2748,0.6951
2.2753,0.6954
2.2755,0.6953
2.2757,0.6951
2.2759,0.6951
2.2761,0.6952
2.2764,0.6953
2.2767,0.6952
2.277,0.6951
2.2773,0.6952
2.2777,0.6953
2.278,0.6954
2.2784,0.6955
2.2787,0.6955
2.279,0.6955
2.2794,0.6956
2.2797,0.6958
2.28,0.6958
2.2804,0.6958
2.2808,0.6958
2.2812,0.696
2.2817,0.6962
2.2821,0.6965
2.2825,0.6966
2.2827,0.6966
2.2829,0.6965
2.2831,0.6963
2.2833,0.6962
2.2836,0.6962
2.2839,0.6962
2.2842,0.6963
2.2846,0.6965
2.285,0.6966
2.2855,0.6968
2.2861,0.6971
2.2866,0.6972
2.2869,0.6973
2.2872,0.6973
2.2873,0.6972
2.2875,0.6972
2.2878,0.6971
2.288,0.6971
2.2883,0.6971
2.2886,0.6971
2.289,0.6972
2.2894,0.6974
2.2897,0.6974
2.2901,0.6974
2.2904,0.6975
2.2907,0.6976
2.291,0.6976
2.2914,0.6977
2.2917,0.6977
2.2921,0.6979
2.2925,0.698
2.293,0.6981
2.2934,0.6982
2.2938,0.6982
2.2941,0.6983
2.2943,0.6982
2.2945,0.6983
2.2947,0.6981
2.2949,0.6981
2.2952,0.6982
2.2955,0.6983
2.2959,0.6984
2.2963,0.6985
2.2968,0.6986
2.2973,0.6989
2.2978,0.6991
2.2983,0.6992
2.2985,0.6992
2.2987,0.6991
2.2989,0.6989
2.2991,0.6988
2.2994,0.6988
2.2997,0.699
2.3,0.6991
2.3003,0.6991
2.3007,0.6991
2.3011,0.6993
2.3014,0.6994
2.3017,0.6993
2.302,0.6993
2.3024,0.6994
2.3027,0.6994
2.303,0.6995
2.3034,0.6996
2.3038,0.6998
2.3043,0.6999
2.3047,0.7
2.3052,0.7002
2.3055,0.7004
2.3058,0.7003
2.3059,0.7001
2.3061,0.7
2.3063,0.7
2.3066,0.6999
2.3069,0.6999
2.3072,0.7
2.3076,0.7001
2.308,0.7003
2.3085,0.7005
2.309,0.7007
2.3096,0.7009
2.3099,0.7009
2.3102,0.7009
2.3104,0.7009
2.3106,0.7009
2.3108,0.7007
2.3111,0.7006
2.3114,0.7007
2.3117,0.7008
2.312,0.7009
2.3124,0.7009
2.3127,0.7009
2.3131,0.701
2.3134,0.7011
2.3137,0.701
2.3141,0.7011
2.3144,0.7012
2.3148,0.7013
2.3151,0.7014
2.3155,0.7015
2.316,0.7016
2.3164,0.7017
2.3168,0.7018
2.3171,0.7019
2.3173,0.7018
2.3175,0.7017
2.3177,0.7016
2.3179,0.7015
2.3182,0.7015
2.3185,0.7016
2.3189,0.7017
2.3193,0.7018
2.3198,0.7019
2.3203,0.7022
2.3208,0.7024
2.3212,0.7026
2.3215,0.7026
2.3218,0.7025
2.322,0.7024
2.3222,0.7023
2.3224,0.7023
2.3227,0.7023
2.323,0.7023
2.3233,0.7023
2.3237,0.7024
2.324,0.7023
2.3244,0.7025
2.3247,0.7027
2.325,0.7028
2.3253,0.7023
2.3257,0.7023
2.326,0.7028
2.3264,0.7031
2.3268,0.7031
2.3272,0.7029
2.3277,0.703
2.3281,0.7034
2.3285,0.7035
2.3287,0.7033
2.3289,0.7033
2.3291,0.7031
2.3293,0.703
2.3296,0.703
2.3299,0.7032
2.3302,0.7033
2.3306,0.7032
2.331,0.7032
2.3315,0.7036
2.3321,0.7039
2.3326,0.7041
2.3329,0.704
2.3331,0.7039
2.3333,0.704
2.3335,0.7038
2.3338,0.7038
2.334,0.7038
2.3343,0.7038
2.3346,0.7038
2.335,0.7038
2.3354,0.704
2.3357,0.7041
2.3361,0.7041
2.3364,0.704
2.3367,0.704
2.337,0.7042
2.3374,0.7043
2.3377,0.7041
2.3381,0.7042
2.3385,0.7044
2.339,0.7045
2.3394,0.7047
2.3398,0.7047
2.3401,0.7048
2.3403,0.7048
2.3405,0.7047
2.3407,0.7046
2.341,0.7045
2.3412,0.7045
2.3415,0.7045
2.3419,0.7046
2.3423,0.7048
2.3428,0.7051
2.3433,0.7053
2.3438,0.7054
2.3442,0.7054
2.3445,0.7053
2.3447,0.7053
2.3449,0.7053
2.3451,0.7052
2.3454,0.7052
2.3457,0.7052
2.346,0.7053
2.3463,0.7054
2.3467,0.7053
2.347,0.7053
2.3474,0.7053
2.3477,0.7055
2.348,0.7056
2.3484,0.7056
2.3487,0.7056
2.3491,0.7056
2.3494,0.7057
2.3498,0.7059
2.3503,0.7059
2.3507,0.706
2.3511,0.7062
2.3515,0.7063
2.3517,0.7061
2.3519,0.706
2.3521,0.706
2.3523,0.7059
2.3526,0.7058
2.3529,0.7058
2.3532,0.7059
2.3536,0.7059
2.354,0.7061
2.3545,0.7063
2.3551,0.7066
2.3556,0.7068
2.3559,0.7068
2.3561,0.7067
2.3563,0.7065
2.3565,0.7065
2.3568,0.7064
2.357,0.7064
2.3573,0.7065
2.3577,0.7065
2.358,0.7064
2.3584,0.7065
2.3588,0.7067
2.3591,0.7068
2.3594,0.7067
2.3597,0.7068
2.3601,0.7068
2.3604,0.7069
2.3608,0.7069
2.3611,0.7069
2.3615,0.7071
2.362,0.7072
2.3624,0.7073
2.3628,0.7074
2.3631,0.7075
2.3633,0.7073
2.3635,0.7072
2.3637,0.7071
2.3639,0.7071
2.3642,0.707
2.3645,0.7071
2.3649,0.7071
2.3653,0.7072
2.3658,0.7076
2.3663,0.7078
2.3669,0.7079
2.3673,0.7079
2.3675,0.7079
2.3677,0.7078
2.3679,0.7078
2.3682,0.7076
2.3684,0.7075
2.3687,0.7076
2.369,0.7076
2.3693,0.7077
2.3697,0.7077
2.3701,0.7078
2.3704,0.7078
2.3707,0.7079
2.3711,0.708
2.3714,0.7081
2.3717,0.708
2.3721,0.708
2.3724,0.7081
2.3728,0.7083
2.3733,0.7083
2.3737,0.7084
2.3741,0.7085
2.3745,0.7086
2.3747,0.7085
2.3749,0.7084
2.3751,0.7082
2.3753,0.7082
2.3756,0.7082
2.3759,0.7082
2.3762,0.7084
2.3766,0.7085
2.3771,0.7086
2.3776,0.7088
2.3781,0.709
2.3786,0.7091
2.3789,0.7091
2.3791,0.709
2.3793,0.7089
2.3795,0.7089
2.3798,0.709
2.38,0.7089
2.3803,0.7088
2.3806,0.7087
2.381,0.7088
2.3814,0.7089
2.3817,0.709
2.382,0.7091
2.3824,0.7091
2.3827,0.7091
2.383,0.7091
2.3834,0.709
2.3838,0.7091
2.3841,0.7092
2.3846,0.7094
2.385,0.7095
2.3855,0.7096
2.3858,0.7096
2.3861,0.7096
2.3863,0.7095
2.3865,0.7094
2.3867,0.7094
2.3869,0.7095
2.3872,0.7094
2.3875,0.7093
2.3879,0.7094
2.3883,0.7095
2.3888,0.7096
2.3893,0.7099
2.3898,0.7101
2.3902,0.7101
2.3905,0.7101
2.3907,0.71
2.3909,0.71
2.3911,0.71
2.3914,0.7099
2.3917,0.7098
2.392,0.7097
2.3923,0.7098
2.3927,0.7099
2.393,0.71
2.3934,0.7101
2.3937,0.7101
2.3941,0.7101
2.3944,0.7102
2.3947,0.7101
2.3951,0.7102
2.3954,0.7101
2.3958,0.7103
2.3962,0.7104
2.3967,0.7105
2.3971,0.7106
2.3974,0.7107
2.3977,0.7107
2.3979,0.7105
2.3981,0.7104
2.3983,0.7104
2.3986,0.7103
2.3989,0.7103
2.3992,0.7103
2.3996,0.7104
2.4001,0.7106
2.4006,0.7108
2.4011,0.711
2.4016,0.7112
2.4019,0.7111
2.4021,0.711
2.4023,0.711
2.4025,0.7108
2.4027,0.7107
2.403,0.7107
2.4033,0.7108
2.4037,0.7108
2.404,0.7108
2.4044,0.7108
2.4047,0.7109
2.405,0.711
2.4054,0.7109
2.4057,0.7109
2.406,0.7109
2.4064,0.711
2.4067,0.711
2.4071,0.7111
2.4076,0.7113
2.408,0.7114
2.4085,0.7115
2.4088,0.7116
2.4091,0.7115
2.4092,0.7113
2.4094,0.7112
2.4097,0.7112
2.4099,0.7112
2.4102,0.7112
2.4105,0.7112
2.4109,0.7113
2.4113,0.7114
2.4119,0.7116
2.4124,0.7119
2.4129,0.7121
2.4133,0.712
2.4135,0.712
2.4137,0.7118
2.4139,0.7117
2.4141,0.7116
2.4144,0.7117
2.4147,0.7116
2.415,0.7116
2.4154,0.7117
2.4157,0.7117
2.4161,0.7118
2.4164,0.7118
2.4167,0.7118
2.417,0.7118
2.4174,0.7118
2.4177,0.7119
2.4181,0.712
2.4185,0.712
2.4189,0.7122
2.4193,0.7123
2.4198,0.7124
2.4202,0.7124
2.4205,0.7125
2.4207,0.7123
2.4209,0.7121
2.4211,0.7121
2.4213,0.7121
2.4215,0.712
2.4218,0.712
2.4222,0.712
2.4226,0.7121
2.4231,0.7124
2.4236,0.7127
2.4242,0.7129
2.4246,0.7129
2.4249,0.7128
2.4251,0.7127
2.4253,0.7127
2.4255,0.7126
2.4257,0.7125
2.426,0.7124
2.4263,0.7124
2.4267,0.7124
2.427,0.7126
2.4274,0.7126
2.4278,0.7126
2.4281,0.7126
2.4284,0.7127
2.4287,0.7127
2.429,0.7127
2.4294,0.7128
2.4298,0.7128
2.4302,0.713
2.4306,0.713
2.431,0.713
2.4315,0.7131
2.4318,0.7132
2.4321,0.7132
2.4322,0.7131
2.4324,0.7129
2.4327,0.7129
2.4329,0.7129
2.4332,0.7128
2.4335,0.7128
2.4339,0.7129
2.4344,0.713
2.4349,0.7132
2.4354,0.7134
2.4359,0.7135
2.4362,0.7136
2.4365,0.7134
2.4367,0.7133
2.4369,0.7133
2.4371,0.7133
2.4374,0.7132
2.4377,0.7132
2.438,0.7132
2.4384,0.7132
2.4387,0.7132
2.4391,0.7133
2.4394,0.7133
2.4397,0.7132
2.4401,0.7133
2.4404,0.7133
2.4407,0.7133
2.4411,0.7134
2.4414,0.7135
2.4419,0.7136
2.4423,0.7137
2.4428,0.7138
2.4432,0.7138
2.4434,0.7138
2.4437,0.7137
2.4438,0.7136
2.444,0.7135
2.4443,0.7134
2.4445,0.7134
2.4449,0.7134
2.4452,0.7135
2.4456,0.7136
2.4461,0.7137
2.4467,0.7138
2.4472,0.7141
2.4476,0.7143
2.4479,0.7142
2.4481,0.7141
2.4483,0.714
2.4485,0.7139
2.4487,0.7137
2.449,0.7137
2.4493,0.7138
2.4497,0.7138
2.45,0.7139
2.4504,0.7139
2.4507,0.7139
2.4511,0.7139
2.4514,0.7139
2.4517,0.7139
2.452,0.714
2.4524,0.714
2.4527,0.7141
2.4531,0.7142
2.4536,0.7142
2.454,0.7143
2.4544,0.7144
2.4548,0.7145
2.455,0.7144
2.4552,0.7143
2.4554,0.7141
2.4556,0.714
2.4559,0.7139
2.4562,0.714
2.4566,0.714
2.4569,0.714
2.4574,0.7142
2.4579,0.7144
2.4585,0.7147
2.4589,0.7148
2.4592,0.7146
2.4594,0.7145
2.4596,0.7145
2.4598,0.7144
2.4601,0.7143
2.4604,0.7143
2.4607,0.7143
2.461,0.7143
2.4614,0.7144
2.4617,0.7145
2.4621,0.7144
2.4624,0.7145
2.4627,0.7145
2.463,0.7145
2.4633,0.7144
2.4637,0.7144
2.4641,0.7146
2.4645,0.7147
2.4649,0.7148
2.4653,0.7148
2.4658,0.7149
2.4661,0.7149
2.4664,0.7149
2.4666,0.7148
2.4668,0.7148
2.467,0.7147
2.4672,0.7146
2.4675,0.7146
2.4679,0.7146
2.4682,0.7146
2.4687,0.7147
2.4692,0.7149
2.4697,0.7152
2.4702,0.7153
2.4706,0.7153
2.4708,0.7151
2.471,0.715
2.4712,0.715
2.4714,0.7148
2.4717,0.7148
2.472,0.7148
2.4724,0.7148
2.4727,0.7149
2.4731,0.7149
2.4734,0.7149
2.4737,0.715
2.474,0.715
2.4744,0.7149
2.4747,0.7148
2.475,0.7149
2.4754,0.715
2.4758,0.715
2.4762,0.7151
2.4766,0.7153
2.4771,0.7154
2.4775,0.7155
2.4778,0.7155
2.478,0.7153
2.4782,0.7152
2.4784,0.7152
2.4786,0.7151
2.4789,0.7151
2.4792,0.715
2.4796,0.715
2.48,0.7151
2.4805,0.7153
2.481,0.7155
2.4815,0.7157
2.4819,0.7157
2.4822,0.7156
2.4824,0.7155
2.4826,0.7154
2.4828,0.7153
2.483,0.7152
2.4833,0.7153
2.4837,0.7152
2.484,0.7153
2.4844,0.7153
2.4847,0.7154
2.4851,0.7155
2.4854,0.7154
2.4857,0.7153
2.4861,0.7153
2.4864,0.7153
2.4867,0.7153
2.4871,0.7154
2.4875,0.7155
2.4879,0.7155
2.4884,0.7157
2.4888,0.7158
2.4891,0.7158
2.4894,0.7158
2.4896,0.7156
2.4898,0.7155
2.49,0.7154
2.4903,0.7154
2.4906,0.7153
2.4909,0.7153
2.4913,0.7153
2.4917,0.7154
2.4922,0.7156
2.4928,0.7159
2.4932,0.716
2.4936,0.716
2.4938,0.7158
2.494,0.7157
2.4942,0.7156
2.4944,0.7155
2.4947,0.7155
2.495,0.7154
2.4953,0.7155
2.4957,0.7155
2.4961,0.7157
2.4964,0.7156
2.4968,0.7156
2.4971,0.7156
2.4974,0.7156
2.4977,0.7157
2.4981,0.7156
2.4984,0.7157
2.4988,0.7158
2.4992,0.7159
2.4997,0.716
2.5001,0.716
2.5005,0.716
2.5008,0.716
2.501,0.7159
2.5012,0.7157
2.5014,0.7156
2.5016,0.7155
2.5019,0.7154
2.5022,0.7155
2.5025,0.7156
2.503,0.7158
2.5034,0.7159
2.504,0.7161
2.5045,0.7163
2.5049,0.7164
2.5052,0.7163
2.5054,0.7162
2.5056,0.716
2.5058,0.7158
2.5061,0.7158
2.5064,0.7158
2.5067,0.7158
2.507,0.7158
2.5074,0.7158
2.5077,0.7158
2.5081,0.7159
2.5084,0.7159
2.5087,0.7159
2.509,0.7159
2.5094,0.7159
2.5097,0.7159
2.5101,0.716
2.5105,0.716
2.5109,0.7161
2.5114,0.7161
2.5118,0.7162
2.5121,0.7162
2.5124,0.7161
2.5126,0.7161
2.5128,0.7161
2.513,0.7159
2.5132,0.7158
2.5135,0.7158
2.5139,0.7158
2.5142,0.7159
2.5147,0.7159
2.5152,0.7161
2.5158,0.7163
2.5162,0.7164
2.5166,0.7164
2.5168,0.7163
2.517,0.7161
2.5172,0.716
2.5174,0.716
2.5177,0.716
2.518,0.716
2.5183,0.7159
2.5187,0.7159
2.519,0.7161
2.5194,0.7162
2.5197,0.7161
2.52,0.716
2.5204,0.7161
2.5207,0.7161
2.521,0.7161
2.5214,0.7161
2.5218,0.7161
2.5222,0.7162
2.5227,0.7162
2.5231,0.7163
2.5234,0.7164
2.5237,0.7164
2.5239,0.7163
2.5241,0.7162
2.5244,0.7161
2.5246,0.7159
2.5249,0.7159
2.5252,0.7159
2.5256,0.716
2.526,0.7161
2.5264,0.7162
2.527,0.7163
2.5275,0.7165
2.5279,0.7166
2.5282,0.7165
2.5284,0.7164
2.5286,0.7163
2.5288,0.7161
2.529,0.716
2.5293,0.716
2.5297,0.7161
2.53,0.716
2.5304,0.7161
2.5307,0.7161
2.5311,0.7161
2.5314,0.716
2.5317,0.7161
2.532,0.7161
2.5324,0.7161
2.5328,0.7161
2.5331,0.7162
2.5335,0.7162
2.534,0.7164
2.5344,0.7165
2.5348,0.7165
2.5351,0.7164
2.5354,0.7164
2.5355,0.7163
2.5357,0.7162
2.536,0.7161
2.5362,0.716
2.5365,0.716
2.5369,0.716
2.5373,0.716
2.5377,0.7161
2.5383,0.7163
2.5388,0.7165
2.5393,0.7166
2.5396,0.7167
2.5398,0.7166
2.54,0.7164
2.5402,0.7162
2.5404,0.7161
2.5407,0.716
2.541,0.716
2.5413,0.716
2.5417,0.7162
2.5421,0.7162
2.5424,0.7161
2.5427,0.7161
2.543,0.7161
2.5434,0.7161
2.5437,0.716
2.544,0.716
2.5444,0.7161
2.5448,0.7162
2.5453,0.7163
2.5457,0.7165
2.5462,0.7166
2.5465,0.7167
2.5468,0.7165
2.547,0.7162
2.5471,0.7161
2.5473,0.716
2.5476,0.716
2.5479,0.716
2.5482,0.716
2.5486,0.716
2.549,0.716
2.5495,0.7162
2.55,0.7163
2.5505,0.7166
2.5509,0.7167
2.5512,0.7166
2.5514,0.7164
2.5516,0.7163
2.5518,0.7162
2.5521,0.7161
2.5524,0.716
2.5527,0.716
2.553,0.716
2.5534,0.716
2.5537,0.716
2.5541,0.7161
2.5544,0.7161
2.5547,0.7162
2.555,0.7162
2.5554,0.7162
2.5557,0.7161
2.5561,0.7161
2.5565,0.7161
2.5569,0.7163
2.5574,0.7165
2.5578,0.7165
2.5581,0.7164
2.5584,0.7163
2.5586,0.7162
2.5587,0.716
2.559,0.7159
2.5592,0.7159
2.5595,0.7159
2.5599,0.716
2.5603,0.716
2.5607,0.7161
2.5613,0.7162
2.5618,0.7164
2.5622,0.7165
2.5625,0.7165
2.5628,0.7164
2.563,0.7162
2.5632,0.7161
2.5634,0.716
2.5637,0.716
2.564,0.716
2.5643,0.716
2.5647,0.716
2.565,0.7158
2.5654,0.7158
2.5657,0.7159
2.566,0.716
2.5663,0.716
2.5667,0.7159
2.567,0.7159
2.5674,0.716
2.5678,0.716
2.5682,0.7162
2.5687,0.7163
2.5691,0.7164
2.5695,0.7164
2.5697,0.7163
2.5699,0.7161
2.5701,0.716
2.5703,0.7159
2.5706,0.7158
2.5709,0.7158
2.5712,0.7158
2.5716,0.7158
2.572,0.7159
2.5725,0.7161
2.573,0.7163
2.5735,0.7163
2.5739,0.7164
2.5742,0.7163
2.5744,0.7162
2.5745,0.7161
2.5748,0.716
2.575,0.7158
2.5753,0.7158
2.5757,0.7157
2.576,0.7157
2.5764,0.7158
2.5767,0.7159
2.5771,0.716
2.5774,0.7159
2.5777,0.7158
2.578,0.7159
2.5784,0.716
2.5787,0.7159
2.5791,0.7158
2.5795,0.7159
2.5799,0.7161
2.5804,0.7161
2.5808,0.7162
2.5811,0.7162
2.5814,0.716
2.5815,0.7158
2.5817,0.7158
2.582,0.7157
2.5822,0.7156
2.5825,0.7156
2.5829,0.7156
2.5833,0.7156
2.5837,0.7157
2.5842,0.7159
2.5848,0.7161
2.5852,0.7161
2.5856,0.7162
2.5858,0.716
2.586,0.7159
2.5862,0.7158
2.5864,0.7156
2.5867,0.7156
2.587,0.7156
2.5873,0.7155
2.5877,0.7156
2.588,0.7157
2.5884,0.7157
2.5887,0.7157
2.5891,0.7156
2.5894,0.7156
2.5897,0.7156
2.5901,0.7155
2.5904,0.7155
2.5908,0.7156
2.5912,0.7156
2.5917,0.7158
2.5921,0.7159
2.5925,0.7159
2.5927,0.7158
2.5929,0.7157
2.5931,0.7155
2.5933,0.7154
2.5936,0.7154
2.5939,0.7153
2.5942,0.7153
2.5946,0.7154
2.595,0.7155
2.5955,0.7156
2.5961,0.7158
2.5966,0.7159
2.5969,0.7159
2.5972,0.7159
2.5974,0.7157
2.5976,0.7155
2.5978,0.7155
2.5981,0.7154
2.5983,0.7154
2.5987,0.7154
2.599,0.7154
2.5994,0.7154
2.5997,0.7153
2.6001,0.7153
2.6004,0.7153
2.6007,0.7153
2.601,0.7153
2.6014,0.7153
2.6017,0.7154
2.6021,0.7154
2.6025,0.7154
2.6029,0.7155
2.6034,0.7156
2.6038,0.7157
2.6041,0.7157
2.6044,0.7156
2.6045,0.7154
2.6047,0.7152
2.605,0.7151
2.6052,0.715
2.6055,0.7151
2.6059,0.715
2.6063,0.7151
2.6068,0.7153
2.6073,0.7155
2.6078,0.7156
2.6083,0.7156
2.6085,0.7155
2.6088,0.7155
2.6089,0.7153
2.6091,0.7152
2.6094,0.7151
2.6097,0.715
2.61,0.715
2.6103,0.7151
2.6107,0.7151
2.6111,0.7151
2.6114,0.7151
2.6118,0.7151
2.6121,0.7151
2.6124,0.715
2.6127,0.7149
2.6131,0.7149
2.6134,0.715
2.6138,0.715
2.6142,0.7152
2.6147,0.7152
2.6151,0.7153
2.6155,0.7152
2.6157,0.7152
2.6159,0.7151
2.6161,0.715
2.6163,0.7148
2.6166,0.7147
2.6169,0.7147
2.6172,0.7146
2.6176,0.7147
2.618,0.7147
2.6185,0.7149
2.6191,0.7151
2.6195,0.7153
2.6199,0.7153
2.6201,0.715
2.6203,0.7148
2.6205,0.7147
2.6208,0.7147
2.621,0.7147
2.6213,0.7146
2.6217,0.7145
2.622,0.7146
2.6224,0.7147
2.6227,0.7147
2.6231,0.7145
2.6234,0.7145
2.6237,0.7145
2.6241,0.7146
2.6244,0.7145
2.6247,0.7145
2.6251,0.7145
2.6255,0.7147
2.626,0.7147
2.6264,0.7148
2.6268,0.7149
2.6271,0.7149
2.6273,0.7146
2.6275,0.7144
2.6277,0.7143
2.6279,0.7142
2.6282,0.7142
2.6285,0.7142
2.6289,0.7143
2.6293,0.7143
2.6298,0.7144
2.6303,0.7145
2.6308,0.7147
2.6312,0.7148
2.6315,0.7147
2.6317,0.7145
2.6319,0.7143
2.6321,0.7143
2.6324,0.7142
2.6327,0.7141
2.633,0.7141
2.6333,0.7141
2.6337,0.7142
2.634,0.7142
2.6344,0.7142
2.6347,0.7142
2.6351,0.7142
2.6354,0.7142
2.6357,0.7141
2.6361,0.7141
2.6364,0.7141
2.6368,0.7142
2.6372,0.7142
2.6377,0.7143
2.6381,0.7143
2.6385,0.7143
2.6387,0.7143
2.6389,0.7141
2.6391,0.7139
2.6393,0.7138
2.6396,0.7138
2.6399,0.7138
2.6402,0.7138
2.6406,0.7138
2.641,0.7139
2.6416,0.714
2.6421,0.7141
2.6426,0.7143
2.6429,0.7142
2.6431,0.7141
2.6433,0.714
2.6435,0.7139
2.6438,0.7139
2.644,0.7137
2.6443,0.7136
2.6446,0.7135
2.645,0.7135
2.6454,0.7136
2.6457,0.7137
2.646,0.7137
2.6464,0.7136
2.6467,0.7136
2.647,0.7135
2.6474,0.7136
2.6477,0.7136
2.6481,0.7136
2.6485,0.7136
2.649,0.7138
2.6494,0.7139
2.6498,0.714
2.6501,0.7138
2.6503,0.7136
2.6505,0.7135
2.6507,0.7134
2.6509,0.7133
2.6512,0.7132
2.6515,0.7132
2.6519,0.7132
2.6523,0.7133
2.6528,0.7135
2.6534,0.7135
2.6539,0.7136
2.6543,0.7137
2.6545,0.7136
2.6547,0.7134
2.6549,0.7133
2.6551,0.7132
2.6554,0.7132
2.6557,0.7132
2.656,0.7131
2.6564,0.713
2.6567,0.7131
2.6571,0.7131
2.6574,0.7131
2.6577,0.713
2.6581,0.7131
2.6584,0.713
2.6587,0.713
2.6591,0.713
2.6594,0.7131
2.6598,0.7132
2.6603,0.7133
2.6607,0.7133
2.6612,0.7133
2.6615,0.7132
2.6617,0.7131
2.6619,0.713
2.6621,0.7128
2.6623,0.7127
2.6626,0.7126
2.6628,0.7126
2.6632,0.7126
2.6636,0.7126
2.6641,0.7127
2.6646,0.713
2.6651,0.7132
2.6656,0.7132
2.6659,0.7131
2.6661,0.7129
2.6663,0.7128
2.6665,0.7128
2.6668,0.7127
2.667,0.7125
2.6673,0.7125
2.6677,0.7126
2.668,0.7125
2.6684,0.7125
2.6688,0.7125
2.6691,0.7125
2.6694,0.7125
2.6697,0.7125
2.67,0.7125
2.6704,0.7124
2.6708,0.7124
2.6712,0.7125
2.6716,0.7126
2.672,0.7126
2.6725,0.7126
2.6728,0.7127
2.6731,0.7126
2.6733,0.7125
2.6735,0.7123
2.6737,0.7121
2.6739,0.7121
2.6742,0.7121
2.6745,0.712
2.6749,0.7119
2.6753,0.712
2.6758,0.7122
2.6764,0.7124
2.6769,0.7125
2.6773,0.7125
2.6775,0.7124
2.6777,0.7123
2.6779,0.712
2.6781,0.712
2.6784,0.7119
2.6787,0.7118
2.679,0.7118
2.6794,0.7117
2.6797,0.7117
2.68,0.7118
2.6804,0.7118
2.6807,0.7118
2.6811,0.7118
2.6814,0.7116
2.6817,0.7117
2.6821,0.7117
2.6824,0.7117
2.6828,0.7117
2.6833,0.7117
2.6837,0.7118
2.6842,0.7119
2.6845,0.7118
2.6847,0.7117
2.6849,0.7116
2.6851,0.7115
2.6853,0.7114
2.6856,0.7114
2.6859,0.7113
2.6862,0.7113
2.6866,0.7113
2.6871,0.7114
2.6876,0.7116
2.6881,0.7117
2.6886,0.7118
2.6889,0.7118
2.6891,0.7117
2.6893,0.7115
2.6895,0.7114
2.6898,0.7112
2.69,0.7111
2.6903,0.7111
2.6907,0.7111
2.691,0.711
2.6914,0.711
2.6917,0.711
2.692,0.711
2.6924,0.711
2.6927,0.711
2.693,0.7111
2.6934,0.711
2.6937,0.711
2.6941,0.7109
2.6945,0.711
2.695,0.7113
2.6954,0.7112
2.6958,0.7112
2.696,0.7111
2.6962,0.7109
2.6964,0.7107
2.6966,0.7106
2.6969,0.7105
2.6972,0.7105
2.6975,0.7105
2.6979,0.7105
2.6984,0.7107
2.6989,0.7108
2.6994,0.711
2.6999,0.7111
2.7002,0.711
2.7004,0.7108
2.7006,0.7106
2.7009,0.7106
2.7011,0.7106
2.7014,0.7105
2.7017,0.7104
2.702,0.7103
2.7024,0.7103
2.7027,0.7104
2.7031,0.7104
2.7034,0.7103
2.7037,0.7102
2.704,0.7102
2.7043,0.7102
2.7047,0.7102
2.705,0.7103
2.7054,0.7103
2.7058,0.7104
2.7063,0.7104
2.7068,0.7105
2.7072,0.7105
2.7075,0.7104
2.7077,0.7102
2.7078,0.71
2.708,0.7099
2.7083,0.7099
2.7085,0.7097
2.7089,0.7097
2.7092,0.7098
2.7097,0.7099
2.7102,0.71
2.7107,0.7101
2.7112,0.7102
2.7116,0.7102
2.7118,0.7102
2.712,0.71
2.7122,0.7098
2.7124,0.7096
2.7127,0.7096
2.713,0.7097
2.7133,0.7096
2.7137,0.7096
2.7141,0.7096
2.7144,0.7095
2.7147,0.7095
2.7151,0.7096
2.7154,0.7095
2.7157,0.7095
2.7161,0.7094
2.7164,0.7095
2.7168,0.7095
2.7172,0.7096
2.7176,0.7095
2.7181,0.7096
2.7185,0.7097
2.7188,0.7097
2.719,0.7096
2.7192,0.7094
2.7194,0.7092
2.7196,0.7091
2.7199,0.709
2.7202,0.7089
2.7205,0.7089
2.7209,0.7089
2.7214,0.709
2.7219,0.7092
2.7225,0.7093
2.7229,0.7094
2.7232,0.7094
2.7234,0.7093
2.7236,0.7092
2.7238,0.7091
2.7241,0.709
2.7244,0.7089
2.7247,0.7088
2.725,0.7086
2.7254,0.7086
2.7257,0.7086
2.7261,0.7087
2.7264,0.7087
2.7267,0.7087
2.7271,0.7087
2.7274,0.7086
2.7277,0.7085
2.7281,0.7086
2.7285,0.7086
2.7289,0.7086
2.7293,0.7088
2.7298,0.7088
2.7301,0.7089
2.7304,0.7087
2.7306,0.7085
2.7308,0.7083
2.731,0.7082
2.7313,0.7081
2.7315,0.708
2.7319,0.708
2.7322,0.708
2.7327,0.7081
2.7332,0.7082
2.7337,0.7083
2.7342,0.7085
2.7346,0.7086
2.7348,0.7085
2.735,0.7083
2.7352,0.7081
2.7354,0.708
2.7357,0.708
2.736,0.7079
2.7363,0.7078
2.7367,0.7077
2.737,0.7078
2.7374,0.7078
2.7377,0.7078
2.738,0.7078
2.7384,0.7077
2.7387,0.7076
2.739,0.7076
2.7394,0.7077
2.7398,0.7077
2.7402,0.7078
2.7406,0.7078
2.7411,0.7079
2.7415,0.7079
2.7418,0.7079
2.742,0.7077
2.7422,0.7075
2.7424,0.7074
2.7426,0.7072
2.7429,0.7072
2.7432,0.7071
2.7435,0.7071
2.7439,0.7072
2.7444,0.7073
2.7449,0.7075
2.7455,0.7076
2.7459,0.7077
2.7462,0.7076
2.7464,0.7074
2.7466,0.7073
2.7468,0.7071
2.7471,0.707
2.7474,0.7069
2.7477,0.7069
2.748,0.707
2.7483,0.7069
2.7487,0.7069
2.7491,0.7069
2.7494,0.7068
2.7497,0.7068
2.75,0.7069
2.7504,0.7067
2.7507,0.7067
2.7511,0.7068
2.7515,0.7068
2.7519,0.7068
2.7523,0.7069
2.7528,0.707
2.7531,0.707
2.7534,0.7068
2.7536,0.7067
2.7538,0.7065
2.754,0.7065
2.7542,0.7063
2.7545,0.7062
2.7549,0.7062
2.7552,0.7063
2.7557,0.7064
2.7562,0.7064
2.7567,0.7066
2.7572,0.7067
2.7576,0.7067
2.7578,0.7065
2.758,0.7064
2.7582,0.7063
2.7584,0.7062
2.7587,0.7061
2.759,0.706
2.7593,0.7059
2.7597,0.706
2.76,0.706
2.7604,0.7059
2.7607,0.7059
2.7611,0.7059
2.7614,0.7058
2.7617,0.7058
2.762,0.7058
2.7624,0.7058
2.7628,0.7058
2.7632,0.7058
2.7636,0.7059
2.7641,0.706
2.7645,0.706
2.7648,0.7059
2.765,0.7057
2.7652,0.7055
2.7654,0.7054
2.7656,0.7052
2.7659,0.7052
2.7662,0.7052
2.7666,0.7052
2.767,0.7052
2.7674,0.7053
2.768,0.7055
2.7685,0.7056
2.7689,0.7056
2.7692,0.7056
2.7694,0.7055
2.7696,0.7053
2.7698,0.7052
2.7701,0.7052
2.7704,0.7051
2.7707,0.705
2.771,0.7049
2.7714,0.7049
2.7717,0.7049
2.7721,0.7049
2.7724,0.7049
2.7727,0.7048
2.773,0.7048
2.7734,0.7048
2.7737,0.7048
2.7741,0.7048
2.7745,0.7049
2.7749,0.7049
2.7754,0.7049
2.7758,0.705
2.7761,0.7049
2.7764,0.7048
2.7766,0.7047
2.7768,0.7046
2.777,0.7045
2.7772,0.7043
2.7775,0.7042
2.7779,0.7043
2.7783,0.7044
2.7787,0.7044
2.7792,0.7044
2.7798,0.7046
2.7802,0.7047
2.7806,0.7047
2.7808,0.7046
2.781,0.7044
2.7812,0.7042
2.7814,0.704
2.7817,0.7039
2.782,0.7039
2.7823,0.7038
2.7827,0.7039
2.783,0.7039
2.7834,0.704
2.7837,0.7039
2.784,0.7038
2.7844,0.7037
2.7847,0.7038
2.785,0.7038
2.7854,0.7037
2.7858,0.7037
2.7862,0.7038
2.7867,0.7039
2.7871,0.704
2.7875,0.704
2.7878,0.7039
2.788,0.7037
2.7882,0.7034
2.7884,0.7032
2.7886,0.7032
2.7889,0.7032
2.7892,0.7033
2.7895,0.7032
2.7899,0.7033
2.7904,0.7033
2.7909,0.7034
2.7915,0.7036
2.7919,0.7037
2.7922,0.7037
2.7924,0.7035
2.7926,0.7033
2.7928,0.7032
2.7931,0.703
2.7934,0.7029
2.7937,0.7029
2.794,0.7029
2.7944,0.7029
2.7947,0.7028
2.7951,0.7028
2.7954,0.7028
2.7957,0.7028
2.796,0.7028
2.7964,0.7027
2.7967,0.7027
2.7971,0.7027
2.7975,0.7027
2.7979,0.7028
2.7984,0.7029
2.7988,0.703
2.7991,0.7029
2.7994,0.7027
2.7996,0.7026
2.7998,0.7025
2.8,0.7024
2.8002,0.7023
2.8005,0.7022
2.8009,0.7021
2.8013,0.7021
2.8017,0.7022
2.8022,0.7023
2.8028,0.7025
2.8032,0.7026
2.8036,0.7026
2.8038,0.7025
2.804,0.7022
2.8042,0.7021
2.8045,0.702
2.8047,0.7019
2.805,0.7018
2.8053,0.7018
2.8057,0.7018
2.806,0.7018
2.8064,0.7018
2.8067,0.7018
2.807,0.7017
2.8074,0.7016
2.8077,0.7016
2.808,0.7016
2.8084,0.7015
2.8088,0.7015
2.8092,0.7017
2.8097,0.7018
2.8101,0.7018
2.8105,0.7018
2.8108,0.7017
2.811,0.7016
2.8112,0.7014
2.8114,0.7012
2.8116,0.7011
2.8119,0.7009
2.8122,0.7009
2.8126,0.701
2.813,0.7011
2.8135,0.7012
2.814,0.7014
2.8145,0.7015
2.8149,0.7015
2.8152,0.7014
2.8154,0.7012
2.8156,0.701
2.8158,0.7009
2.8161,0.7008
2.8163,0.7007
2.8167,0.7006
2.817,0.7006
2.8173,0.7007
2.8177,0.7006
2.8181,0.7006
2.8184,0.7006
2.8187,0.7006
2.819,0.7006
2.8194,0.7005
2.8197,0.7005
2.8201,0.7004
2.8205,0.7004
2.8209,0.7005
2.8214,0.7006
2.8218,0.7006
2.8221,0.7006
2.8224,0.7005
2.8226,0.7004
2.8228,0.7002
2.823,0.7001
2.8232,0.7
2.8235,0.6999
2.8239,0.6999
2.8242,0.6999
2.8247,0.6999
2.8252,0.7
2.8257,0.7002
2.8262,0.7003
2.8266,0.7002
2.8268,0.7001
2.827,0.6999
2.8272,0.6998
2.8274,0.6998
2.8277,0.6997
2.828,0.6997
2.8283,0.6996
2.8287,0.6997
2.829,0.6996
2.8294,0.6995
2.8297,0.6995
2.8301,0.6994
2.8304,0.6994
2.8307,0.6994
2.831,0.6994
2.8314,0.6993
2.8318,0.6993
2.8322,0.6994
2.8326,0.6995
2.8331,0.6996
2.8335,0.6996
2.8337,0.6994
2.834,0.6993
2.8341,0.6992
2.8344,0.699
2.8346,0.6988
2.8349,0.6988
2.8352,0.6987
2.8355,0.6987
2.836,0.6988
2.8365,0.6989
2.837,0.699
2.8375,0.6992
2.8379,0.6992
2.8382,0.6991
2.8384,0.699
2.8386,0.6988
2.8388,0.6986
2.8391,0.6985
2.8394,0.6984
2.8397,0.6984
2.84,0.6984
2.8404,0.6984
2.8407,0.6984
2.8411,0.6984
2.8414,0.6983
2.8417,0.6984
2.842,0.6983
2.8424,0.6982
2.8427,0.6982
2.8431,0.6982
2.8435,0.6983
2.8439,0.6983
2.8444,0.6983
2.8448,0.6984
2.8452,0.6983
2.8454,0.6982
2.8456,0.6981
2.8458,0.698
2.846,0.6978
2.8462,0.6977
2.8465,0.6976
2.8469,0.6976
2.8473,0.6976
2.8477,0.6978
2.8482,0.6979
2.8488,0.6981
2.8493,0.6981
2.8496,0.6981
2.8498,0.6979
2.85,0.6977
2.8502,0.6975
2.8504,0.6974
2.8507,0.6974
2.851,0.6974
2.8513,0.6974
2.8517,0.6974
2.8521,0.6973
2.8524,0.6973
2.8528,0.6973
2.8531,0.6972
2.8534,0.6972
2.8537,0.6972
2.8541,0.6972
2.8545,0.6972
2.8548,0.6971
2.8552,0.6971
2.8557,0.6972
2.8561,0.6972
2.8565,0.6972
2.8568,0.6971
2.857,0.6969
2.8572,0.6968
2.8574,0.6967
2.8576,0.6966
2.8579,0.6964
2.8582,0.6963
2.8586,0.6964
2.859,0.6964
2.8595,0.6965
2.86,0.6968
2.8605,0.6969
2.8609,0.6969
2.8612,0.6967
2.8614,0.6966
2.8616,0.6965
2.8618,0.6964
2.8621,0.6963
2.8623,0.6962
2.8627,0.6961
2.863,0.6962
2.8634,0.6961
2.8637,0.696
2.8641,0.6961
2.8644,0.6962
2.8647,0.6961
2.8651,0.696
2.8654,0.696
2.8657,0.6959
2.8661,0.6959
2.8665,0.6959
2.8669,0.696
2.8674,0.696
2.8678,0.696
2.8681,0.696
2.8683,0.6959
2.8685,0.6957
2.8687,0.6954
2.8689,0.6953
2.8692,0.6955
2.8695,0.6954
2.8699,0.6953
2.8703,0.6953
2.8707,0.6954
2.8712,0.6955
2.8718,0.6956
2.8722,0.6957
2.8725,0.6957
2.8728,0.6955
2.873,0.6953
2.8732,0.6952
2.8734,0.6951
2.8737,0.6951
2.874,0.695
2.8743,0.695
2.8747,0.695
2.875,0.6949
2.8754,0.6949
2.8757,0.6949
2.8761,0.695
2.8764,0.6949
2.8767,0.6948
2.877,0.6947
2.8774,0.6948
2.8778,0.6947
2.8782,0.6946
2.8786,0.6948
2.8791,0.6949
2.8795,0.6949
2.8797,0.6949
2.8799,0.6948
2.8801,0.6946
2.8803,0.6944
2.8806,0.6943
2.8809,0.6941
2.8812,0.6941
2.8816,0.6942
2.882,0.6942
2.8825,0.6943
2.8831,0.6945
2.8836,0.6946
2.8839,0.6946
2.8842,0.6945
2.8844,0.6943
2.8845,0.6941
2.8848,0.694
2.885,0.694
2.8853,0.6939
2.8857,0.6939
2.886,0.6938
2.8864,0.6938
2.8867,0.6938
2.887,0.6937
2.8874,0.6936
2.8877,0.6936
2.888,0.6936
2.8884,0.6936
2.8887,0.6935
2.8891,0.6935
2.8895,0.6936
2.89,0.6936
2.8904,0.6937
2.8908,0.6938
2.8911,0.6938
2.8913,0.6936
2.8915,0.6934
2.8917,0.6932
2.892,0.6931
2.8922,0.693
2.8925,0.693
2.8929,0.693
2.8933,0.693
2.8938,0.6931
2.8943,0.6933
2.8949,0.6934
2.8953,0.6934
2.8955,0.6933
2.8957,0.6931
2.8959,0.693
2.8961,0.6928
2.8964,0.6928
2.8967,0.6927
2.897,0.6926
2.8974,0.6926
2.8977,0.6926
2.8981,0.6926
2.8984,0.6925
2.8988,0.6925
2.8991,0.6924
2.8994,0.6923
2.8997,0.6924
2.9001,0.6924
2.9004,0.6924
2.9008,0.6924
2.9013,0.6925
2.9017,0.6925
2.9022,0.6926
2.9025,0.6926
2.9027,0.6924
2.9029,0.6923
2.9031,0.6921
2.9033,0.6919
2.9036,0.6918
2.9039,0.6918
2.9042,0.6918
2.9046,0.6919
2.905,0.6919
2.9056,0.692
2.9061,0.6921
2.9066,0.6922
2.9069,0.6923
2.9071,0.6921
2.9073,0.6919
2.9075,0.6917
2.9078,0.6916
2.9081,0.6916
2.9084,0.6915
2.9087,0.6915
2.909,0.6914
2.9094,0.6914
2.9098,0.6914
2.9101,0.6914
2.9104,0.6912
2.9107,0.6912
2.911,0.6913
2.9114,0.6911
2.9118,0.6912
2.9121,0.6913
2.9126,0.6913
2.913,0.6913
2.9135,0.6914
2.9138,0.6914
2.9141,0.6913
2.9143,0.6911
2.9145,0.6909
2.9147,0.6908
2.9149,0.6908
2.9152,0.6906
2.9155,0.6906
2.9159,0.6905
2.9163,0.6906
2.9168,0.6907
2.9173,0.6909
2.9178,0.691
2.9183,0.6911
2.9185,0.6909
2.9187,0.6907
2.9189,0.6905
2.9191,0.6905
2.9194,0.6904
2.9197,0.6903
2.92,0.6903
2.9203,0.6903
2.9207,0.6902
2.921,0.6901
2.9214,0.6901
2.9217,0.6901
2.922,0.6901
2.9224,0.6902
2.9227,0.6901
2.9231,0.69
2.9234,0.69
2.9238,0.69
2.9242,0.6901
2.9247,0.6901
2.9251,0.6902
2.9255,0.6901
2.9257,0.69
2.9259,0.6898
2.9261,0.6896
2.9263,0.6895
2.9266,0.6895
2.9269,0.6894
2.9272,0.6894
2.9276,0.6894
2.928,0.6894
2.9286,0.6896
2.9291,0.6898
2.9296,0.6899
2.9299,0.6898
2.9301,0.6897
2.9303,0.6895
2.9305,0.6894
2.9308,0.6894
2.931,0.6892
2.9313,0.689
2.9317,0.689
2.932,0.689
2.9324,0.689
2.9327,0.689
2.9331,0.6889
2.9334,0.6889
2.9337,0.6889
2.934,0.6889
2.9344,0.6889
2.9347,0.689
2.9351,0.6889
2.9355,0.6889
2.936,0.6889
2.9364,0.6889
2.9368,0.6889
2.9371,0.6888
2.9373,0.6887
2.9375,0.6885
2.9377,0.6883
2.9379,0.6882
2.9382,0.6882
2.9385,0.6881
2.9389,0.6881
2.9393,0.6883
2.9398,0.6884
2.9404,0.6885
2.9409,0.6885
2.9412,0.6886
2.9415,0.6885
2.9417,0.6883
2.9419,0.6881
2.9421,0.6879
2.9424,0.6878
2.9427,0.6878
2.943,0.6879
2.9434,0.6878
2.9437,0.6878
2.9441,0.6878
2.9444,0.6878
2.9447,0.6877
2.945,0.6876
2.9453,0.6876
2.9457,0.6876
2.946,0.6875
2.9464,0.6876
2.9468,0.6875
2.9473,0.6876
2.9477,0.6877
2.9482,0.6878
2.9485,0.6877
2.9487,0.6876
2.9489,0.6873
2.9491,0.6872
2.9493,0.6871
2.9495,0.6871
2.9499,0.6869
2.9502,0.6869
2.9506,0.687
2.9511,0.6871
2.9517,0.6872
2.9522,0.6873
2.9526,0.6874
2.9529,0.6873
2.9531,0.6871
2.9533,0.687
2.9535,0.6869
2.9537,0.6867
2.954,0.6866
2.9543,0.6866
2.9547,0.6866
2.955,0.6866
2.9554,0.6866
2.9557,0.6866
2.9561,0.6866
2.9564,0.6865
2.9567,0.6864
2.957,0.6864
2.9574,0.6863
2.9577,0.6864
2.9581,0.6864
2.9586,0.6865
2.959,0.6865
2.9595,0.6866
2.9598,0.6866
2.9601,0.6865
2.9603,0.6864
2.9605,0.6862
2.9607,0.686
2.9609,0.686
2.9612,0.6859
2.9615,0.6857
2.9619,0.6856
2.9624,0.6858
2.9629,0.686
2.9634,0.6862
2.9639,0.6862
2.9642,0.6862
2.9644,0.6861
2.9646,0.686
2.9648,0.6857
2.9651,0.6856
2.9654,0.6856
2.9657,0.6855
2.966,0.6855
2.9663,0.6854
2.9667,0.6853
2.9671,0.6853
2.9674,0.6853
2.9677,0.6853
2.968,0.6852
2.9684,0.6852
2.9687,0.6852
2.9691,0.6852
2.9695,0.6852
2.9699,0.6852
2.9703,0.6853
2.9707,0.6853
2.9711,0.6853
2.9714,0.6852
2.9716,0.6851
2.9718,0.6849
2.972,0.6848
2.9723,0.6847
2.9726,0.6846
2.9729,0.6846
2.9732,0.6846
2.9737,0.6847
2.9741,0.6848
2.9747,0.6849
2.9752,0.6851
2.9756,0.6851
2.9759,0.6849
2.976,0.6847
2.9762,0.6846
2.9765,0.6845
2.9767,0.6844
2.977,0.6843
2.9773,0.6842
2.9777,0.6842
2.978,0.6842
2.9784,0.6841
2.9787,0.6842
2.9791,0.6842
2.9794,0.6842
2.9797,0.6841
2.98,0.6841
2.9804,0.6841
2.9808,0.6839
2.9812,0.6839
2.9816,0.684
2.9821,0.6842
2.9825,0.6843
2.9828,0.6841
2.9831,0.684
2.9832,0.6838
2.9834,0.6837
2.9836,0.6836
2.9839,0.6835
2.9842,0.6834
2.9845,0.6834
2.9849,0.6834
2.9854,0.6834
2.9859,0.6836
2.9864,0.6838
2.9869,0.6838
2.9873,0.6838
2.9875,0.6837
2.9876,0.6835
2.9878,0.6833
2.9881,0.6832
2.9884,0.6831
2.9887,0.6831
2.989,0.683
2.9893,0.6831
2.9897,0.683
2.9901,0.683
2.9904,0.6829
2.9907,0.6829
2.991,0.6828
2.9914,0.6827
2.9917,0.6827
2.9921,0.6829
2.9925,0.6829
2.9929,0.6829
2.9933,0.6829
2.9938,0.683
2.9941,0.6829
2.9944,0.6828
2.9946,0.6827
2.9948,0.6826
2.995,0.6825
2.9953,0.6824
2.9955,0.6822
2.9958,0.6822
2.9962,0.6821
2.9966,0.6822
2.9971,0.6823
2.9977,0.6825
2.9982,0.6826
2.9986,0.6826
2.9988,0.6825
2.999,0.6823
2.9992,0.6822
2.9995,0.682
2.9997,0.682
3.0,0.6819
3.0003,0.6818
3.0007,0.6818
3.001,0.6818
3.0014,0.6818
3.0017,0.6818
3.002,0.6817
3.0024,0.6817
3.0027,0.6817
3.003,0.6817
3.0034,0.6816
3.0038,0.6815
3.0042,0.6816
3.0046,0.6817
3.005,0.6818
3.0054,0.6818
3.0058,0.6818
3.006,0.6817
3.0062,0.6814
3.0064,0.6814
3.0066,0.6812
3.0069,0.681
3.0072,0.6809
3.0075,0.6809
3.0079,0.681
3.0084,0.6811
3.0089,0.6812
3.0095,0.6815
3.0099,0.6815
3.0102,0.6814
3.0105,0.6813
3.0106,0.6811
3.0108,0.6809
3.0111,0.6807
3.0113,0.6807
3.0116,0.6805
3.012,0.6805
3.0123,0.6806
3.0127,0.6806
3.013,0.6805
3.0134,0.6806
3.0137,0.6806
3.014,0.6806
3.0144,0.6806
3.0147,0.6805
3.0151,0.6804
3.0155,0.6805
3.0159,0.6806
3.0163,0.6806
3.0168,0.6806
3.0171,0.6806
3.0174,0.6805
3.0176,0.6804
3.0178,0.6802
3.018,0.68
3.0183,0.68
3.0186,0.6799
3.0189,0.6799
3.0192,0.68
3.0197,0.68
3.0202,0.68
3.0207,0.6801
3.0212,0.6802
3.0216,0.6803
3.0218,0.6801
3.022,0.6799
3.0222,0.6798
3.0225,0.6797
3.0227,0.6796
3.023,0.6797
3.0233,0.6795
3.0237,0.6795
3.024,0.6795
3.0244,0.6794
3.0247,0.6794
3.0251,0.6794
3.0254,0.6793
3.0257,0.6793
3.026,0.6792
3.0264,0.6792
3.0268,0.6792
3.0272,0.6794
3.0277,0.6794
3.0281,0.6794
3.0285,0.6795
3.0288,0.6795
3.029,0.6793
3.0292,0.6791
3.0294,0.6789
3.0296,0.6789
3.0299,0.6787
3.0302,0.6786
3.0305,0.6787
3.0309,0.6787
3.0314,0.6787
3.0319,0.6789
3.0325,0.679
3.0329,0.6791
3.0333,0.6791
3.0335,0.6789
3.0337,0.6787
3.0339,0.6786
3.0341,0.6784
3.0344,0.6784
3.0347,0.6784
3.035,0.6782
3.0354,0.6782
3.0357,0.6783
3.0361,0.6782
3.0364,0.6782
3.0367,0.6782
3.037,0.6781
3.0374,0.6781
3.0377,0.678
3.0381,0.6781
3.0385,0.6782
3.0389,0.6782
3.0394,0.6783
3.0398,0.6782
3.0401,0.6782
3.0404,0.6781
3.0406,0.6779
3.0408,0.6779
3.041,0.6777
3.0412,0.6775
3.0415,0.6774
3.0418,0.6774
3.0422,0.6774
3.0427,0.6775
3.0432,0.6776
3.0437,0.6777
3.0442,0.6779
3.0446,0.6779
3.0448,0.6778
3.045,0.6776
3.0452,0.6774
3.0455,0.6774
3.0457,0.6773
3.046,0.6773
3.0463,0.6771
3.0467,0.6771
3.047,0.6772
3.0474,0.6772
3.0477,0.6771
3.048,0.6769
3.0483,0.6769
3.0487,0.6769
3.049,0.6769
3.0494,0.6769
3.0498,0.6769
3.0502,0.677
3.0506,0.6771
3.0511,0.6771
3.0515,0.6772
3.0518,0.6771
3.052,0.6769
3.0522,0.6768
3.0524,0.6766
3.0526,0.6764
3.0529,0.6764
3.0532,0.6763
3.0535,0.6763
3.0539,0.6763
3.0544,0.6764
3.0549,0.6765
3.0555,0.6767
3.0559,0.6768
3.0562,0.5488
3.0563,0.4205
3.0564,0.2954
3.0564,0.2319
3.0564,0.7167
