Displacement (mm),Load (kN)
0.0,0.0011
0.0,0.001
0.0,0.001
0.0,0.0012
0.0001,0.0012
0.0002,0.0013
0.0003,0.0012
0.0003,0.0013
0.0003,0.0014
0.0004,0.0013
0.0005,0.0014
0.0008,0.0017
0.0013,0.0024
0.002,0.0031
0.0026,0.0037
0.0031,0.0043
0.0035,0.0045
0.0039,0.0049
0.0042,0.0052
0.0046,0.0056
0.005,0.006
0.0053,0.0064
0.0057,0.0068
0.006,0.007
0.0063,0.0073
0.0067,0.0077
0.007,0.0081
0.0075,0.0084
0.0079,0.0089
0.0084,0.0094
0.0088,0.0097
0.0091,0.0099
0.0093,0.01
0.0095,0.0102
0.0097,0.0105
0.0099,0.0107
0.0102,0.011
0.0105,0.0113
0.0108,0.0115
0.0113,0.0119
0.0118,0.0124
0.0123,0.0129
0.0128,0.0135
0.0132,0.0138
0.0135,0.0139
0.0137,0.0141
0.0139,0.0142
0.0141,0.0144
0.0144,0.0148
0.0147,0.0151
0.015,0.0154
0.0154,0.0157
0.0157,0.016
0.0161,0.0162
0.0164,0.0165
0.0167,0.0168
0.017,0.0171
0.0174,0.0174
0.0177,0.0177
0.018,0.018
0.0184,0.0184
0.0188,0.0186
0.0192,0.019
0.0197,0.0194
0.0201,0.0198
0.0204,0.0201
0.0207,0.0204
0.0209,0.0205
0.0211,0.0205
0.0213,0.0207
0.0216,0.021
0.0219,0.0213
0.0222,0.0216
0.0226,0.022
0.0231,0.0224
0.0236,0.0229
0.0242,0.0233
0.0246,0.0237
0.0249,0.0239
0.0251,0.0241
0.0253,0.0243
0.0255,0.0244
0.0257,0.0246
0.026,0.0248
0.0263,0.0251
0.0267,0.0254
0.027,0.0256
0.0274,0.0259
0.0277,0.0262
0.028,0.0265
0.0284,0.0268
0.0287,0.0271
0.029,0.0274
0.0293,0.0276
0.0297,0.0278
0.0301,0.0282
0.0305,0.0286
0.031,0.029
0.0315,0.0295
0.0318,0.0298
0.0321,0.0298
0.0323,0.0298
0.0325,0.03
0.0327,0.0302
0.0329,0.0305
0.0332,0.0305
0.0335,0.0306
0.0339,0.031
0.0343,0.0315
0.0348,0.032
0.0353,0.0324
0.0358,0.0329
0.0362,0.0331
0.0365,0.0333
0.0367,0.0334
0.0369,0.0335
0.0371,0.0335
0.0374,0.0335
0.0377,0.0338
0.038,0.0341
0.0383,0.0345
0.0387,0.0347
0.0391,0.0349
0.0394,0.0352
0.0397,0.0356
0.04,0.0357
0.0403,0.0359
0.0407,0.0361
0.041,0.0363
0.0414,0.0366
0.0418,0.037
0.0423,0.0373
0.0427,0.0376
0.0431,0.0379
0.0434,0.0381
0.0436,0.0382
0.0438,0.0384
0.044,0.0384
0.0443,0.0385
0.0445,0.0387
0.0448,0.0389
0.0452,0.0392
0.0456,0.0394
0.046,0.0397
0.0465,0.0401
0.0471,0.0405
0.0475,0.0409
0.0479,0.0411
0.0481,0.0412
0.0482,0.0412
0.0485,0.0413
0.0487,0.0416
0.049,0.0418
0.0493,0.042
0.0497,0.0421
0.05,0.0425
0.0504,0.0427
0.0507,0.0429
0.051,0.043
0.0514,0.0432
0.0517,0.0434
0.052,0.0435
0.0523,0.0439
0.0527,0.0443
0.0531,0.0447
0.0535,0.045
0.054,0.0452
0.0544,0.0455
0.0548,0.0458
0.055,0.0459
0.0552,0.0459
0.0554,0.046
0.0557,0.0462
0.0559,0.0464
0.0562,0.0466
0.0565,0.0468
0.0569,0.0471
0.0573,0.0473
0.0578,0.0477
0.0584,0.0482
0.0589,0.0485
0.0593,0.0488
0.0595,0.0489
0.0597,0.0489
0.0599,0.049
0.0601,0.0492
0.0604,0.0493
0.0607,0.0495
0.061,0.0497
0.0613,0.05
0.0617,0.0503
0.062,0.0505
0.0624,0.0506
0.0627,0.0507
0.063,0.051
0.0633,0.0513
0.0637,0.0516
0.064,0.0519
0.0644,0.052
0.0648,0.0523
0.0653,0.0526
0.0657,0.053
0.0661,0.0532
0.0664,0.0532
0.0667,0.0534
0.0668,0.0535
0.0671,0.0536
0.0673,0.0538
0.0676,0.0539
0.0679,0.0541
0.0682,0.0543
0.0686,0.0547
0.0691,0.055
0.0696,0.0554
0.0702,0.0558
0.0706,0.056
0.0709,0.0562
0.0711,0.0563
0.0713,0.0563
0.0715,0.0564
0.0717,0.0565
0.072,0.0567
0.0723,0.0568
0.0727,0.057
0.073,0.0573
0.0734,0.0575
0.0737,0.0578
0.074,0.0579
0.0743,0.058
0.0747,0.0582
0.075,0.0584
0.0753,0.0587
0.0757,0.0591
0.0761,0.0593
0.0766,0.0595
0.077,0.0597
0.0775,0.06
0.0778,0.0602
0.0781,0.0604
0.0782,0.0604
0.0784,0.0604
0.0786,0.0605
0.0789,0.0607
0.0792,0.0609
0.0795,0.061
0.0798,0.0612
0.0803,0.0615
0.0808,0.0619
0.0813,0.0624
0.0819,0.0627
0.0823,0.0629
0.0825,0.063
0.0827,0.0631
0.0829,0.0631
0.0831,0.0631
0.0834,0.0633
0.0837,0.0635
0.084,0.0637
0.0844,0.0638
0.0847,0.0641
0.0851,0.0643
0.0854,0.0644
0.0857,0.0646
0.086,0.0648
0.0863,0.065
0.0867,0.0652
0.087,0.0654
0.0874,0.0656
0.0878,0.0659
0.0883,0.0662
0.0887,0.0664
0.0891,0.0666
0.0894,0.0668
0.0896,0.0668
0.0898,0.0669
0.09,0.0669
0.0903,0.067
0.0905,0.0672
0.0908,0.0673
0.0912,0.0675
0.0916,0.0677
0.0921,0.068
0.0926,0.0685
0.0932,0.0689
0.0936,0.0692
0.0939,0.0694
0.0941,0.0694
0.0943,0.0694
0.0945,0.0694
0.0947,0.0696
0.095,0.0698
0.0953,0.0699
0.0957,0.0699
0.096,0.0701
0.0964,0.0704
0.0967,0.0706
0.097,0.0708
0.0973,0.0709
0.0977,0.0711
0.098,0.0714
0.0983,0.0716
0.0987,0.0719
0.0991,0.0721
0.0996,0.0724
0.1,0.0727
0.1005,0.0729
0.1008,0.0731
0.1011,0.073
0.1013,0.0731
0.1014,0.0732
0.1017,0.0733
0.1019,0.0734
0.1022,0.0734
0.1025,0.0737
0.1029,0.074
0.1033,0.0743
0.1038,0.0745
0.1044,0.075
0.1049,0.0754
0.1052,0.0755
0.1055,0.0756
0.1056,0.0756
0.1058,0.0757
0.1061,0.0758
0.1064,0.0759
0.1067,0.0761
0.107,0.0762
0.1073,0.0764
0.1077,0.0766
0.108,0.0768
0.1084,0.077
0.1087,0.0772
0.109,0.0772
0.1093,0.0774
0.1097,0.0776
0.11,0.0778
0.1104,0.0781
0.1108,0.0784
0.1113,0.0787
0.1118,0.079
0.1122,0.0792
0.1125,0.0793
0.1127,0.0793
0.1128,0.0794
0.113,0.0794
0.1133,0.0795
0.1135,0.0797
0.1138,0.0798
0.1142,0.08
0.1146,0.0803
0.115,0.0806
0.1156,0.0809
0.1161,0.0813
0.1166,0.0816
0.1169,0.0818
0.1171,0.0817
0.1173,0.0818
0.1175,0.0818
0.1177,0.0819
0.118,0.0821
0.1183,0.0822
0.1187,0.0824
0.119,0.0826
0.1194,0.0828
0.1197,0.083
0.1201,0.0832
0.1204,0.0834
0.1207,0.0835
0.121,0.0837
0.1214,0.084
0.1217,0.0843
0.1221,0.0845
0.1225,0.0847
0.123,0.0849
0.1234,0.0852
0.1238,0.0854
0.124,0.0854
0.1242,0.0854
0.1244,0.0855
0.1247,0.0857
0.1249,0.0858
0.1252,0.0859
0.1255,0.0861
0.1259,0.0863
0.1263,0.0866
0.1268,0.0869
0.1274,0.0873
0.1279,0.0878
0.1283,0.088
0.1285,0.088
0.1287,0.088
0.1289,0.0879
0.1291,0.088
0.1294,0.0882
0.1297,0.0884
0.13,0.0886
0.1303,0.0887
0.1307,0.0889
0.131,0.0892
0.1314,0.0893
0.1317,0.0893
0.132,0.0895
0.1323,0.0898
0.1327,0.0901
0.133,0.0903
0.1334,0.0904
0.1338,0.0906
0.1343,0.0909
0.1348,0.0913
0.1352,0.0915
0.1354,0.0916
0.1357,0.0916
0.1358,0.0916
0.136,0.0917
0.1363,0.0919
0.1365,0.092
0.1368,0.0921
0.1372,0.0923
0.1376,0.0925
0.1381,0.093
0.1386,0.0935
0.1392,0.0938
0.1396,0.094
0.1399,0.094
0.1401,0.094
0.1402,0.094
0.1404,0.0941
0.1407,0.0943
0.141,0.0943
0.1413,0.0945
0.1417,0.0948
0.142,0.0951
0.1424,0.0952
0.1427,0.0955
0.1431,0.0957
0.1434,0.0959
0.1437,0.0961
0.1441,0.0962
0.1444,0.0965
0.1448,0.0967
0.1452,0.0968
0.1456,0.0971
0.146,0.0974
0.1465,0.0977
0.1468,0.0979
0.147,0.0979
0.1472,0.0979
0.1474,0.098
0.1476,0.0979
0.1479,0.0981
0.1482,0.0983
0.1485,0.0985
0.1489,0.0988
0.1493,0.099
0.1498,0.0994
0.1504,0.0997
0.1509,0.1001
0.1513,0.1003
0.1515,0.1003
0.1516,0.1002
0.1518,0.1002
0.1521,0.1003
0.1524,0.1004
0.1527,0.1005
0.153,0.1007
0.1533,0.1009
0.1537,0.1011
0.154,0.1013
0.1544,0.1014
0.1547,0.1014
0.155,0.1016
0.1554,0.1016
0.1557,0.1018
0.1561,0.102
0.1565,0.1021
0.1569,0.1022
0.1573,0.1024
0.1577,0.1026
0.1581,0.1027
0.1584,0.1027
0.1586,0.1025
0.1588,0.1024
0.159,0.1023
0.1593,0.1023
0.1595,0.1023
0.1598,0.1024
0.1602,0.1024
0.1606,0.1025
0.1611,0.1027
0.1616,0.103
0.1622,0.1031
0.1626,0.1031
0.1629,0.103
0.163,0.1028
0.1632,0.1025
0.1634,0.1024
0.1637,0.1024
0.164,0.1024
0.1643,0.1023
0.1647,0.1024
0.165,0.1024
0.1654,0.1024
0.1657,0.1026
0.1661,0.1027
0.1664,0.1027
0.1667,0.1027
0.167,0.1028
0.1674,0.1028
0.1677,0.1029
0.1681,0.1031
0.1686,0.1032
0.169,0.1032
0.1695,0.1033
0.1698,0.1034
0.17,0.1033
0.1702,0.1032
0.1704,0.1031
0.1706,0.1031
0.1709,0.1032
0.1712,0.1032
0.1715,0.1033
0.1719,0.1034
0.1724,0.1036
0.1729,0.1039
0.1735,0.1042
0.1739,0.1043
0.1743,0.1043
0.1744,0.1041
0.1746,0.104
0.1748,0.1039
0.1751,0.104
0.1753,0.104
0.1756,0.1039
0.176,0.1039
0.1763,0.1041
0.1767,0.1044
0.177,0.1045
0.1774,0.1045
0.1777,0.1046
0.178,0.1047
0.1783,0.1047
0.1787,0.1048
0.179,0.1048
0.1794,0.1049
0.1798,0.1051
0.1803,0.1052
0.1808,0.1054
0.1812,0.1055
0.1814,0.1055
0.1816,0.1054
0.1818,0.1053
0.182,0.1053
0.1822,0.1053
0.1825,0.1052
0.1828,0.1053
0.1832,0.1055
0.1836,0.1058
0.1841,0.1061
0.1847,0.1064
0.1852,0.1066
0.1856,0.1067
0.1858,0.1065
0.186,0.1063
0.1862,0.1063
0.1864,0.1064
0.1867,0.1064
0.187,0.1064
0.1873,0.1065
0.1877,0.1066
0.1881,0.1068
0.1884,0.1069
0.1888,0.1068
0.1891,0.107
0.1894,0.107
0.1897,0.1071
0.19,0.1072
0.1904,0.1073
0.1908,0.1074
0.1912,0.1076
0.1917,0.1078
0.1921,0.1079
0.1925,0.108
0.1928,0.108
0.193,0.1079
0.1932,0.1078
0.1934,0.1078
0.1936,0.1078
0.1939,0.1079
0.1941,0.108
0.1945,0.1079
0.1949,0.1082
0.1954,0.1086
0.196,0.1089
0.1965,0.1091
0.197,0.1092
0.1972,0.1092
0.1974,0.1091
0.1976,0.109
0.1978,0.1091
0.1981,0.1091
0.1984,0.1092
0.1987,0.1093
0.199,0.1094
0.1994,0.1096
0.1997,0.1097
0.2001,0.1097
0.2004,0.1098
0.2007,0.11
0.201,0.1101
0.2014,0.1101
0.2017,0.1102
0.2021,0.1104
0.2024,0.1106
0.2029,0.1108
0.2034,0.111
0.2038,0.1112
0.2041,0.1114
0.2044,0.1115
0.2046,0.1114
0.2048,0.1114
0.205,0.1114
0.2052,0.1115
0.2055,0.1117
0.2059,0.1119
0.2062,0.112
0.2066,0.1122
0.2072,0.1125
0.2077,0.1128
0.2082,0.1132
0.2086,0.1135
0.2088,0.1135
0.209,0.1134
0.2092,0.1134
0.2094,0.1135
0.2097,0.1136
0.21,0.1138
0.2103,0.114
0.2107,0.1141
0.211,0.1144
0.2114,0.1145
0.2117,0.1147
0.212,0.1149
0.2124,0.1151
0.2127,0.1152
0.213,0.1155
0.2134,0.1157
0.2138,0.1159
0.2142,0.1162
0.2146,0.1164
0.2151,0.1167
0.2155,0.117
0.2158,0.1171
0.216,0.1171
0.2162,0.1171
0.2164,0.1171
0.2166,0.1172
0.2169,0.1174
0.2172,0.1175
0.2175,0.1176
0.2179,0.1179
0.2184,0.1183
0.2189,0.1187
0.2195,0.119
0.2199,0.1193
0.2202,0.1194
0.2204,0.1194
0.2206,0.1195
0.2208,0.1195
0.221,0.1197
0.2213,0.1198
0.2217,0.12
0.222,0.1201
0.2224,0.1204
0.2227,0.1206
0.223,0.1208
0.2234,0.1209
0.2237,0.121
0.224,0.1212
0.2244,0.1214
0.2247,0.1216
0.2251,0.1219
0.2255,0.1221
0.2259,0.1224
0.2263,0.1227
0.2268,0.1229
0.2271,0.123
0.2273,0.1231
0.2275,0.1231
0.2277,0.1232
0.228,0.1233
0.2282,0.1233
0.2285,0.1234
0.2288,0.1236
0.2292,0.1239
0.2297,0.1242
0.2302,0.1247
0.2308,0.1251
0.2312,0.1254
0.2316,0.1255
0.2318,0.1256
0.232,0.1257
0.2322,0.1258
0.2324,0.1259
0.2327,0.1259
0.233,0.1261
0.2334,0.1263
0.2337,0.1266
0.2341,0.1269
0.2344,0.1271
0.2347,0.1272
0.235,0.1273
0.2353,0.1274
0.2356,0.1277
0.236,0.1279
0.2363,0.128
0.2367,0.1283
0.2372,0.1286
0.2377,0.1289
0.2381,0.1292
0.2385,0.1294
0.2388,0.1296
0.2389,0.1296
0.2391,0.1297
0.2393,0.1297
0.2396,0.1297
0.2398,0.1299
0.2402,0.1301
0.2405,0.1304
0.241,0.1306
0.2415,0.131
0.2421,0.1314
0.2426,0.1316
0.2429,0.1319
0.2432,0.132
0.2433,0.132
0.2435,0.132
0.2438,0.1321
0.2441,0.1323
0.2444,0.1326
0.2447,0.1328
0.245,0.1329
0.2454,0.133
0.2457,0.1332
0.2461,0.1334
0.2464,0.1335
0.2467,0.1336
0.247,0.1338
0.2473,0.1341
0.2477,0.1343
0.2481,0.1344
0.2485,0.1347
0.2489,0.1352
0.2494,0.1355
0.2498,0.1357
0.2501,0.1357
0.2504,0.1358
0.2505,0.1357
0.2507,0.1357
0.251,0.1358
0.2512,0.136
0.2515,0.1362
0.2518,0.1363
0.2522,0.1365
0.2527,0.1369
0.2533,0.1373
0.2538,0.1377
0.2543,0.138
0.2545,0.138
0.2547,0.138
0.2549,0.138
0.2551,0.138
0.2554,0.1381
0.2557,0.1383
0.256,0.1384
0.2563,0.1385
0.2567,0.1388
0.257,0.139
0.2574,0.1393
0.2577,0.1394
0.258,0.1395
0.2584,0.1396
0.2587,0.1398
0.259,0.14
0.2594,0.1403
0.2598,0.1404
0.2602,0.1407
0.2607,0.1409
0.2611,0.1412
0.2614,0.1413
0.2617,0.1413
0.2619,0.1413
0.2621,0.1413
0.2623,0.1414
0.2626,0.1415
0.2629,0.1416
0.2632,0.1417
0.2636,0.142
0.264,0.1423
0.2645,0.1427
0.2651,0.1431
0.2656,0.1434
0.2659,0.1435
0.2661,0.1435
0.2663,0.1435
0.2665,0.1435
0.2667,0.1435
0.267,0.1435
0.2673,0.1436
0.2677,0.1437
0.268,0.1439
0.2684,0.1441
0.2687,0.1444
0.2691,0.1446
0.2694,0.1448
0.2697,0.1449
0.27,0.145
0.2703,0.1452
0.2707,0.1453
0.2711,0.1455
0.2715,0.1458
0.272,0.1461
0.2724,0.1463
0.2728,0.1466
0.2731,0.1466
0.2733,0.1466
0.2735,0.1466
0.2737,0.1466
0.2739,0.1467
0.2742,0.1468
0.2745,0.1469
0.2748,0.147
0.2752,0.1473
0.2757,0.1476
0.2763,0.148
0.2768,0.1483
0.2773,0.1485
0.2775,0.1485
0.2777,0.1485
0.2779,0.1485
0.2781,0.1486
0.2784,0.1486
0.2787,0.1488
0.279,0.149
0.2793,0.1491
0.2797,0.1493
0.28,0.1495
0.2804,0.1496
0.2807,0.1497
0.281,0.1498
0.2813,0.15
0.2817,0.1501
0.282,0.1502
0.2824,0.1504
0.2828,0.1506
0.2833,0.1509
0.2837,0.1511
0.2841,0.1513
0.2844,0.1514
0.2847,0.1515
0.2849,0.1516
0.2851,0.1516
0.2853,0.1515
0.2856,0.1516
0.2858,0.1517
0.2862,0.1519
0.2865,0.152
0.287,0.1522
0.2875,0.1527
0.2881,0.1532
0.2886,0.1534
0.2889,0.1535
0.2891,0.1534
0.2893,0.1534
0.2895,0.1533
0.2897,0.1534
0.29,0.1536
0.2903,0.1537
0.2907,0.1538
0.291,0.154
0.2914,0.1541
0.2917,0.1543
0.2921,0.1544
0.2924,0.1545
0.2927,0.1546
0.293,0.1548
0.2933,0.1551
0.2937,0.1552
0.2941,0.1554
0.2945,0.1556
0.295,0.1558
0.2954,0.156
0.2958,0.1562
0.2961,0.1563
0.2963,0.1563
0.2965,0.1563
0.2967,0.1563
0.2969,0.1564
0.2972,0.1564
0.2975,0.1566
0.2978,0.1568
0.2983,0.157
0.2987,0.1573
0.2993,0.1576
0.2999,0.1579
0.3003,0.1581
0.3006,0.1583
0.3007,0.1582
0.3009,0.1582
0.3011,0.1583
0.3014,0.1583
0.3017,0.1584
0.302,0.1585
0.3023,0.1586
0.3027,0.1588
0.303,0.159
0.3034,0.1591
0.3037,0.1592
0.304,0.1593
0.3043,0.1595
0.3046,0.1597
0.305,0.1599
0.3054,0.1601
0.3058,0.1603
0.3062,0.1605
0.3067,0.1607
0.3071,0.1608
0.3075,0.161
0.3077,0.161
0.3079,0.161
0.3081,0.161
0.3083,0.1611
0.3086,0.1612
0.3088,0.1612
0.3092,0.1613
0.3096,0.1616
0.31,0.1619
0.3106,0.1622
0.3111,0.1625
0.3116,0.1628
0.3119,0.1629
0.3121,0.1628
0.3123,0.1628
0.3125,0.1629
0.3127,0.1629
0.313,0.163
0.3133,0.1633
0.3137,0.1634
0.314,0.1635
0.3144,0.1636
0.3147,0.1638
0.315,0.1638
0.3153,0.1639
0.3156,0.164
0.316,0.1642
0.3163,0.1644
0.3167,0.1645
0.3171,0.1647
0.3175,0.165
0.318,0.1653
0.3185,0.1655
0.3189,0.1656
0.3191,0.1657
0.3193,0.1657
0.3195,0.1657
0.3197,0.1657
0.3199,0.1657
0.3202,0.1657
0.3205,0.1659
0.3208,0.1661
0.3212,0.1662
0.3217,0.1665
0.3223,0.1669
0.3228,0.1672
0.3233,0.1675
0.3236,0.1675
0.3237,0.1675
0.3239,0.1674
0.3241,0.1675
0.3244,0.1676
0.3247,0.1677
0.325,0.1678
0.3254,0.1679
0.3257,0.168
0.3261,0.1682
0.3264,0.1683
0.3267,0.1684
0.327,0.1686
0.3274,0.1688
0.3277,0.1688
0.328,0.1689
0.3284,0.1691
0.3288,0.1694
0.3293,0.1697
0.3297,0.1699
0.3301,0.17
0.3304,0.1701
0.3307,0.1701
0.3309,0.1701
0.3311,0.1701
0.3313,0.1701
0.3315,0.1701
0.3318,0.1702
0.3322,0.1703
0.3325,0.1705
0.333,0.1709
0.3335,0.1713
0.3341,0.1716
0.3346,0.1719
0.3349,0.1719
0.3351,0.1718
0.3353,0.1717
0.3355,0.1717
0.3358,0.1718
0.336,0.1719
0.3363,0.172
0.3367,0.1723
0.337,0.1724
0.3374,0.1725
0.3377,0.1727
0.338,0.1727
0.3383,0.1728
0.3386,0.173
0.339,0.1731
0.3393,0.1732
0.3397,0.1734
0.3401,0.1736
0.3405,0.1738
0.341,0.1741
0.3415,0.1743
0.3418,0.1744
0.3421,0.1745
0.3423,0.1745
0.3425,0.1745
0.3427,0.1745
0.3429,0.1746
0.3432,0.1746
0.3435,0.1746
0.3439,0.1748
0.3443,0.1751
0.3448,0.1754
0.3453,0.1758
0.3459,0.176
0.3463,0.1761
0.3465,0.1761
0.3467,0.176
0.3469,0.1761
0.3471,0.1762
0.3474,0.1762
0.3477,0.1763
0.348,0.1764
0.3483,0.1765
0.3487,0.1766
0.349,0.1768
0.3494,0.177
0.3497,0.1771
0.35,0.1772
0.3503,0.1773
0.3506,0.1774
0.351,0.1776
0.3514,0.1778
0.3518,0.1781
0.3522,0.1783
0.3527,0.1785
0.3532,0.1787
0.3535,0.1788
0.3537,0.1788
0.3539,0.1789
0.3541,0.1788
0.3543,0.1788
0.3545,0.1789
0.3548,0.1789
0.3552,0.179
0.3555,0.1792
0.356,0.1795
0.3565,0.1798
0.357,0.1801
0.3575,0.1804
0.3579,0.1805
0.3581,0.1805
0.3583,0.1804
0.3585,0.1803
0.3587,0.1804
0.359,0.1805
0.3593,0.1806
0.3597,0.1807
0.36,0.1808
0.3603,0.1808
0.3607,0.181
0.361,0.1813
0.3614,0.1814
0.3617,0.1814
0.362,0.1816
0.3624,0.1819
0.3627,0.182
0.3631,0.1821
0.3635,0.1822
0.364,0.1825
0.3644,0.1827
0.3648,0.1829
0.3651,0.183
0.3653,0.183
0.3655,0.1829
0.3657,0.1829
0.3659,0.183
0.3662,0.183
0.3665,0.183
0.3669,0.1832
0.3673,0.1835
0.3678,0.1839
0.3684,0.1842
0.3689,0.1845
0.3693,0.1845
0.3695,0.1846
0.3697,0.1845
0.3699,0.1845
0.3701,0.1844
0.3704,0.1845
0.3707,0.1847
0.371,0.1847
0.3713,0.1848
0.3717,0.1851
0.372,0.1852
0.3724,0.1853
0.3727,0.1854
0.373,0.1855
0.3734,0.1856
0.3737,0.1857
0.3741,0.1859
0.3744,0.1861
0.3748,0.1862
0.3753,0.1864
0.3757,0.1867
0.3762,0.1869
0.3765,0.1871
0.3767,0.187
0.3769,0.187
0.3771,0.1869
0.3773,0.1869
0.3775,0.187
0.3778,0.1871
0.3782,0.1873
0.3786,0.1874
0.3791,0.1877
0.3796,0.1881
0.3802,0.1884
0.3806,0.1885
0.3809,0.1885
0.3811,0.1884
0.3813,0.1885
0.3815,0.1885
0.3817,0.1886
0.382,0.1887
0.3823,0.1888
0.3827,0.1888
0.383,0.189
0.3834,0.1892
0.3837,0.1894
0.3841,0.1894
0.3844,0.1896
0.3847,0.1897
0.385,0.1897
0.3854,0.1898
0.3857,0.19
0.3861,0.1903
0.3866,0.1905
0.387,0.1906
0.3875,0.1908
0.3878,0.1909
0.3881,0.191
0.3883,0.191
0.3884,0.191
0.3887,0.1909
0.3889,0.191
0.3892,0.1911
0.3895,0.1911
0.3899,0.1913
0.3903,0.1915
0.3908,0.1918
0.3914,0.1922
0.3919,0.1923
0.3922,0.1926
0.3925,0.1927
0.3927,0.1926
0.3929,0.1925
0.3931,0.1925
0.3934,0.1926
0.3937,0.1927
0.394,0.1927
0.3943,0.1929
0.3947,0.1931
0.395,0.1932
0.3954,0.1932
0.3957,0.1934
0.396,0.1935
0.3963,0.1935
0.3967,0.1937
0.3971,0.1938
0.3974,0.194
0.3979,0.1943
0.3983,0.1945
0.3988,0.1947
0.3991,0.1948
0.3994,0.1949
0.3996,0.1949
0.3998,0.1949
0.4,0.1949
0.4003,0.1949
0.4005,0.1949
0.4008,0.1951
0.4012,0.1951
0.4016,0.1953
0.402,0.1955
0.4026,0.1959
0.4031,0.1962
0.4036,0.1964
0.4039,0.1964
0.4041,0.1964
0.4043,0.1963
0.4045,0.1964
0.4047,0.1964
0.405,0.1964
0.4053,0.1965
0.4057,0.1967
0.406,0.1968
0.4063,0.197
0.4067,0.1971
0.407,0.1971
0.4073,0.1972
0.4077,0.1974
0.408,0.1976
0.4084,0.1977
0.4087,0.1978
0.4091,0.198
0.4095,0.1982
0.41,0.1985
0.4104,0.1987
0.4108,0.1987
0.411,0.1987
0.4112,0.1987
0.4114,0.1987
0.4116,0.1987
0.4119,0.1987
0.4122,0.1988
0.4125,0.199
0.4129,0.1991
0.4133,0.1992
0.4139,0.1995
0.4144,0.1999
0.4149,0.2001
0.4153,0.2002
0.4155,0.2002
0.4157,0.2002
0.4158,0.2002
0.4161,0.2002
0.4164,0.2003
0.4167,0.2004
0.417,0.2005
0.4173,0.2006
0.4177,0.2007
0.418,0.2008
0.4184,0.2009
0.4187,0.201
0.419,0.2011
0.4194,0.2013
0.4197,0.2014
0.4201,0.2015
0.4204,0.2017
0.4208,0.2019
0.4213,0.2021
0.4218,0.2024
0.4222,0.2024
0.4224,0.2025
0.4226,0.2025
0.4228,0.2024
0.423,0.2023
0.4233,0.2024
0.4235,0.2025
0.4238,0.2026
0.4242,0.2027
0.4246,0.203
0.4251,0.2032
0.4257,0.2035
0.4262,0.2037
0.4266,0.2039
0.4268,0.2039
0.427,0.2039
0.4272,0.2039
0.4275,0.2039
0.4277,0.204
0.428,0.2041
0.4283,0.2042
0.4287,0.2043
0.429,0.2045
0.4294,0.2046
0.4297,0.2047
0.4301,0.2048
0.4304,0.2049
0.4307,0.2049
0.431,0.205
0.4314,0.2052
0.4318,0.2054
0.4322,0.2056
0.4326,0.2056
0.4331,0.2059
0.4335,0.206
0.4338,0.2062
0.434,0.2061
0.4342,0.2061
0.4344,0.2061
0.4346,0.2061
0.4349,0.2062
0.4351,0.2062
0.4355,0.2063
0.4359,0.2065
0.4364,0.2068
0.4369,0.2071
0.4375,0.2074
0.4379,0.2076
0.4383,0.2077
0.4385,0.2077
0.4386,0.2077
0.4388,0.2077
0.4391,0.2077
0.4394,0.2077
0.4397,0.2078
0.44,0.208
0.4404,0.2081
0.4407,0.2082
0.4411,0.2084
0.4414,0.2085
0.4417,0.2086
0.442,0.2087
0.4423,0.2088
0.4427,0.2089
0.443,0.209
0.4434,0.2091
0.4439,0.2093
0.4443,0.2095
0.4448,0.2098
0.4452,0.21
0.4454,0.21
0.4456,0.2099
0.4458,0.2099
0.446,0.2099
0.4463,0.2099
0.4465,0.21
0.4468,0.2101
0.4472,0.2103
0.4476,0.2104
0.4481,0.2107
0.4487,0.211
0.4492,0.2113
0.4496,0.2115
0.4499,0.2114
0.45,0.2114
0.4502,0.2113
0.4504,0.2113
0.4507,0.2114
0.451,0.2115
0.4513,0.2117
0.4517,0.2117
0.452,0.2119
0.4524,0.2119
0.4527,0.2121
0.453,0.2123
0.4533,0.2123
0.4537,0.2124
0.454,0.2125
0.4544,0.2127
0.4547,0.2129
0.4551,0.213
0.4556,0.2131
0.4561,0.2133
0.4565,0.2134
0.4568,0.2136
0.457,0.2136
0.4572,0.2136
0.4574,0.2136
0.4576,0.2136
0.4579,0.2136
0.4582,0.2137
0.4585,0.2138
0.4589,0.214
0.4594,0.2142
0.4599,0.2146
0.4605,0.2149
0.4609,0.2151
0.4612,0.2151
0.4614,0.2152
0.4616,0.2151
0.4618,0.2151
0.4621,0.215
0.4624,0.2151
0.4627,0.2152
0.463,0.2154
0.4634,0.2155
0.4637,0.2156
0.4641,0.2157
0.4644,0.2159
0.4647,0.216
0.465,0.216
0.4653,0.2161
0.4657,0.2161
0.466,0.2163
0.4664,0.2165
0.4669,0.2167
0.4673,0.217
0.4678,0.2172
0.4681,0.2172
0.4684,0.2172
0.4686,0.2172
0.4688,0.2172
0.469,0.2172
0.4692,0.2172
0.4695,0.2171
0.4698,0.2172
0.4702,0.2175
0.4706,0.2177
0.4712,0.218
0.4717,0.2184
0.4722,0.2186
0.4726,0.2187
0.4728,0.2187
0.473,0.2186
0.4732,0.2186
0.4734,0.2186
0.4737,0.2187
0.474,0.2188
0.4744,0.2188
0.4747,0.219
0.4751,0.2191
0.4754,0.2193
0.4757,0.2194
0.476,0.2194
0.4763,0.2193
0.4766,0.2195
0.477,0.2197
0.4773,0.2198
0.4777,0.22
0.4782,0.2203
0.4786,0.2205
0.4791,0.2206
0.4795,0.2207
0.4798,0.2207
0.48,0.2207
0.4802,0.2208
0.4804,0.2207
0.4806,0.2207
0.4808,0.2208
0.4812,0.2209
0.4815,0.221
0.482,0.2213
0.4825,0.2217
0.483,0.222
0.4835,0.2222
0.4839,0.2223
0.4842,0.2223
0.4844,0.2221
0.4846,0.2222
0.4848,0.2222
0.4851,0.2223
0.4854,0.2223
0.4857,0.2224
0.486,0.2225
0.4864,0.2227
0.4867,0.2229
0.487,0.2229
0.4874,0.223
0.4877,0.2231
0.488,0.2232
0.4883,0.2233
0.4887,0.2234
0.489,0.2235
0.4895,0.2236
0.4899,0.2239
0.4904,0.2243
0.4908,0.2244
0.4912,0.2245
0.4914,0.2244
0.4916,0.2243
0.4918,0.2243
0.492,0.2244
0.4922,0.2246
0.4925,0.2246
0.4928,0.2245
0.4932,0.2246
0.4937,0.225
0.4942,0.2253
0.4948,0.2255
0.4953,0.2257
0.4956,0.2258
0.4958,0.2258
0.4959,0.2257
0.4961,0.2257
0.4964,0.2259
0.4967,0.226
0.497,0.2258
0.4973,0.2258
0.4977,0.2261
0.4981,0.2264
0.4984,0.2264
0.4987,0.2265
0.499,0.2266
0.4994,0.2268
0.4997,0.2269
0.5,0.227
0.5004,0.227
0.5008,0.2272
0.5012,0.2274
0.5017,0.2276
0.5021,0.2278
0.5025,0.2279
0.5027,0.2279
0.503,0.2279
0.5031,0.228
0.5034,0.228
0.5036,0.2279
0.5039,0.2278
0.5042,0.2279
0.5045,0.2282
0.505,0.2285
0.5055,0.2287
0.5061,0.2289
0.5066,0.2293
0.507,0.2294
0.5072,0.2293
0.5074,0.2293
0.5075,0.2293
0.5078,0.2293
0.508,0.2294
0.5083,0.2294
0.5087,0.2294
0.509,0.2296
0.5094,0.2297
0.5097,0.2299
0.5101,0.2301
0.5104,0.2301
0.5107,0.2301
0.511,0.2302
0.5113,0.2304
0.5117,0.2305
0.512,0.2306
0.5125,0.2308
0.5129,0.2312
0.5134,0.2314
0.5139,0.2315
0.5142,0.2316
0.5144,0.2315
0.5145,0.2315
0.5147,0.2314
0.515,0.2313
0.5152,0.2314
0.5155,0.2315
0.5158,0.2316
0.5162,0.2318
0.5167,0.2321
0.5172,0.2324
0.5178,0.2326
0.5183,0.2329
0.5186,0.2329
0.5188,0.2329
0.5189,0.2328
0.5191,0.2327
0.5194,0.2328
0.5197,0.2328
0.52,0.2328
0.5203,0.2329
0.5207,0.2331
0.521,0.2333
0.5214,0.2334
0.5217,0.2335
0.522,0.2337
0.5223,0.2336
0.5226,0.2338
0.523,0.2338
0.5234,0.2339
0.5238,0.2341
0.5242,0.2344
0.5247,0.2347
0.5251,0.2349
0.5255,0.235
0.5257,0.235
0.5259,0.2349
0.5261,0.2349
0.5263,0.235
0.5266,0.2351
0.5268,0.2351
0.5272,0.2352
0.5275,0.2352
0.5279,0.2354
0.5284,0.2357
0.529,0.2361
0.5295,0.2363
0.5299,0.2364
0.5301,0.2363
0.5303,0.2363
0.5305,0.2363
0.5308,0.2362
0.531,0.2363
0.5313,0.2364
0.5317,0.2366
0.532,0.2367
0.5324,0.2368
0.5327,0.2369
0.533,0.2369
0.5334,0.237
0.5337,0.2371
0.534,0.2372
0.5343,0.2373
0.5347,0.2375
0.5351,0.2377
0.5355,0.2379
0.5359,0.2381
0.5364,0.2383
0.5368,0.2385
0.5371,0.2385
0.5373,0.2385
0.5375,0.2384
0.5377,0.2384
0.5379,0.2384
0.5382,0.2385
0.5385,0.2385
0.5389,0.2386
0.5392,0.2389
0.5397,0.2392
0.5402,0.2394
0.5408,0.2397
0.5413,0.2398
0.5416,0.2399
0.5418,0.2399
0.542,0.2398
0.5422,0.2398
0.5424,0.2399
0.5427,0.2399
0.543,0.2399
0.5433,0.2401
0.5437,0.2402
0.544,0.2403
0.5444,0.2404
0.5447,0.2405
0.545,0.2405
0.5453,0.2407
0.5457,0.2408
0.546,0.2409
0.5464,0.2411
0.5468,0.2412
0.5472,0.2415
0.5477,0.2417
0.5481,0.2418
0.5485,0.2419
0.5487,0.242
0.5489,0.2419
0.5491,0.2418
0.5493,0.2417
0.5496,0.2417
0.5499,0.2419
0.5502,0.242
0.5506,0.2421
0.551,0.2423
0.5515,0.2427
0.5521,0.2431
0.5526,0.2433
0.5529,0.2434
0.5532,0.2433
0.5533,0.2432
0.5535,0.2432
0.5538,0.2432
0.554,0.2432
0.5544,0.2434
0.5547,0.2435
0.555,0.2436
0.5554,0.2436
0.5557,0.2438
0.556,0.2439
0.5563,0.244
0.5567,0.2441
0.557,0.2442
0.5573,0.2443
0.5577,0.2444
0.5581,0.2446
0.5585,0.2449
0.559,0.2451
0.5595,0.2452
0.5599,0.2455
0.5601,0.2455
0.5603,0.2454
0.5605,0.2453
0.5607,0.2452
0.5609,0.2452
0.5612,0.2452
0.5615,0.2453
0.5618,0.2455
0.5622,0.2456
0.5627,0.2459
0.5632,0.2462
0.5638,0.2465
0.5643,0.2467
0.5646,0.2468
0.5648,0.2469
0.565,0.2469
0.5652,0.2467
0.5654,0.2467
0.5657,0.2467
0.566,0.2469
0.5664,0.247
0.5667,0.2471
0.5671,0.2472
0.5674,0.2474
0.5677,0.2474
0.568,0.2475
0.5683,0.2475
0.5687,0.2476
0.569,0.2478
0.5694,0.2479
0.5698,0.2482
0.5702,0.2484
0.5707,0.2486
0.5711,0.2488
0.5715,0.2488
0.5717,0.2488
0.5719,0.2487
0.5721,0.2487
0.5723,0.2486
0.5726,0.2487
0.5728,0.2488
0.5732,0.2489
0.5735,0.2491
0.574,0.2493
0.5745,0.2496
0.5751,0.25
0.5756,0.2501
0.5759,0.2502
0.5761,0.2502
0.5763,0.2502
0.5765,0.25
0.5768,0.25
0.577,0.2501
0.5773,0.2502
0.5777,0.2503
0.578,0.2505
0.5784,0.2507
0.5787,0.2508
0.579,0.2508
0.5793,0.2509
0.5796,0.2511
0.58,0.2511
0.5803,0.2512
0.5807,0.2514
0.5811,0.2515
0.5815,0.2517
0.582,0.2519
0.5824,0.2521
0.5828,0.2523
0.5831,0.2523
0.5833,0.2523
0.5835,0.2522
0.5837,0.2522
0.5839,0.2522
0.5842,0.2522
0.5845,0.2524
0.5849,0.2525
0.5853,0.2527
0.5857,0.2529
0.5863,0.2532
0.5868,0.2534
0.5872,0.2536
0.5875,0.2536
0.5877,0.2536
0.5879,0.2535
0.5881,0.2535
0.5884,0.2537
0.5887,0.2538
0.589,0.2538
0.5893,0.2539
0.5897,0.254
0.59,0.2541
0.5904,0.2541
0.5907,0.2542
0.591,0.2544
0.5913,0.2546
0.5917,0.2547
0.592,0.2548
0.5924,0.2549
0.5928,0.255
0.5932,0.2552
0.5937,0.2554
0.5941,0.2557
0.5945,0.2558
0.5947,0.2558
0.5949,0.2557
0.5951,0.2558
0.5953,0.2557
0.5956,0.2556
0.5958,0.2557
0.5962,0.2558
0.5965,0.256
0.597,0.2561
0.5975,0.2563
0.598,0.2567
0.5985,0.257
0.5989,0.2571
0.5991,0.2572
0.5993,0.2571
0.5995,0.257
0.5998,0.2569
0.6,0.257
0.6003,0.2571
0.6007,0.2572
0.601,0.2574
0.6013,0.2575
0.6017,0.2576
0.602,0.2577
0.6024,0.2578
0.6027,0.2579
0.603,0.258
0.6034,0.2581
0.6037,0.2582
0.6041,0.2584
0.6045,0.2586
0.6049,0.2588
0.6054,0.259
0.6058,0.2591
0.6061,0.2592
0.6063,0.2592
0.6065,0.2591
0.6067,0.259
0.6069,0.259
0.6072,0.259
0.6075,0.2592
0.6079,0.2593
0.6083,0.2596
0.6088,0.2599
0.6093,0.2602
0.6099,0.2604
0.6103,0.2606
0.6105,0.2607
0.6107,0.2606
0.6109,0.2605
0.6112,0.2605
0.6114,0.2605
0.6117,0.2606
0.612,0.2607
0.6123,0.2608
0.6127,0.2609
0.613,0.261
0.6134,0.2612
0.6137,0.2613
0.614,0.2613
0.6144,0.2614
0.6147,0.2617
0.615,0.2618
0.6154,0.2618
0.6158,0.262
0.6162,0.2622
0.6167,0.2624
0.6172,0.2625
0.6175,0.2627
0.6177,0.2627
0.6179,0.2626
0.6181,0.2624
0.6183,0.2625
0.6186,0.2626
0.6188,0.2627
0.6192,0.2628
0.6196,0.2629
0.62,0.2632
0.6206,0.2634
0.6211,0.2637
0.6216,0.264
0.6219,0.2641
0.6221,0.264
0.6223,0.2638
0.6225,0.2638
0.6227,0.2639
0.623,0.2639
0.6233,0.264
0.6236,0.2641
0.624,0.2644
0.6243,0.2646
0.6247,0.2647
0.6251,0.2647
0.6254,0.2647
0.6257,0.2648
0.626,0.2649
0.6264,0.2651
0.6267,0.2652
0.6271,0.2653
0.6275,0.2655
0.628,0.2658
0.6284,0.266
0.6288,0.2661
0.6291,0.2661
0.6293,0.266
0.6295,0.266
0.6297,0.2659
0.6299,0.2659
0.6302,0.266
0.6305,0.2661
0.6309,0.2662
0.6313,0.2664
0.6318,0.2667
0.6323,0.2671
0.6329,0.2673
0.6333,0.2674
0.6335,0.2675
0.6337,0.2674
0.6339,0.2674
0.6341,0.2674
0.6344,0.2674
0.6347,0.2675
0.635,0.2676
0.6353,0.2678
0.6357,0.2679
0.636,0.2679
0.6364,0.268
0.6367,0.2681
0.637,0.2682
0.6374,0.2683
0.6377,0.2684
0.6381,0.2685
0.6384,0.2688
0.6388,0.2689
0.6393,0.2691
0.6397,0.2693
0.6401,0.2694
0.6404,0.2695
0.6407,0.2694
0.6409,0.2694
0.6411,0.2694
0.6413,0.2694
0.6415,0.2694
0.6418,0.2694
0.6422,0.2697
0.6426,0.2699
0.643,0.2701
0.6436,0.2703
0.6441,0.2707
0.6446,0.2709
0.6449,0.271
0.6451,0.2709
0.6453,0.2708
0.6455,0.2708
0.6457,0.2708
0.646,0.2709
0.6463,0.2709
0.6467,0.271
0.647,0.2712
0.6473,0.2713
0.6477,0.2714
0.648,0.2715
0.6483,0.2716
0.6487,0.2717
0.649,0.2718
0.6493,0.2719
0.6497,0.2721
0.6501,0.2722
0.6505,0.2724
0.651,0.2727
0.6514,0.2728
0.6518,0.2729
0.6521,0.2729
0.6523,0.2729
0.6525,0.2729
0.6527,0.2729
0.6529,0.2729
0.6532,0.273
0.6535,0.2731
0.6539,0.2732
0.6543,0.2734
0.6548,0.2737
0.6554,0.274
0.6559,0.2743
0.6563,0.2745
0.6565,0.2744
0.6567,0.2743
0.6569,0.2742
0.6571,0.2742
0.6574,0.2743
0.6576,0.2743
0.658,0.2744
0.6583,0.2745
0.6586,0.2747
0.659,0.2749
0.6594,0.275
0.6597,0.2752
0.66,0.2753
0.6604,0.2753
0.6607,0.2753
0.6611,0.2754
0.6614,0.2756
0.6618,0.2758
0.6623,0.2761
0.6627,0.2762
0.6632,0.2764
0.6635,0.2765
0.6637,0.2765
0.6639,0.2765
0.6641,0.2764
0.6643,0.2764
0.6645,0.2764
0.6649,0.2764
0.6652,0.2766
0.6656,0.2767
0.6661,0.277
0.6666,0.2773
0.6671,0.2776
0.6676,0.2778
0.6678,0.2778
0.6681,0.2777
0.6682,0.2777
0.6685,0.2778
0.6687,0.2778
0.669,0.2779
0.6693,0.2779
0.6697,0.2781
0.67,0.2784
0.6704,0.2785
0.6707,0.2786
0.6711,0.2786
0.6714,0.2786
0.6717,0.2787
0.672,0.2788
0.6724,0.279
0.6728,0.2792
0.6731,0.2793
0.6736,0.2795
0.674,0.2797
0.6745,0.2798
0.6748,0.2798
0.6751,0.2799
0.6752,0.2799
0.6754,0.2798
0.6756,0.2798
0.6759,0.2798
0.6762,0.2799
0.6765,0.2801
0.6769,0.2803
0.6773,0.2804
0.6778,0.2807
0.6784,0.2811
0.6789,0.2813
0.6793,0.2813
0.6795,0.2813
0.6797,0.2813
0.6799,0.2813
0.6801,0.2812
0.6804,0.2813
0.6807,0.2814
0.681,0.2815
0.6814,0.2815
0.6817,0.2817
0.6821,0.2819
0.6824,0.282
0.6827,0.2821
0.683,0.2822
0.6833,0.2822
0.6837,0.2822
0.684,0.2824
0.6844,0.2826
0.6848,0.2828
0.6853,0.283
0.6858,0.2832
0.6862,0.2833
0.6865,0.2835
0.6867,0.2834
0.6868,0.2835
0.687,0.2834
0.6873,0.2833
0.6875,0.2833
0.6879,0.2834
0.6882,0.2836
0.6886,0.2838
0.6891,0.284
0.6897,0.2844
0.6902,0.2846
0.6906,0.2848
0.6909,0.2848
0.6911,0.2848
0.6913,0.2847
0.6915,0.2847
0.6917,0.2849
0.692,0.2848
0.6923,0.2849
0.6927,0.2852
0.693,0.2851
0.6933,0.2852
0.6937,0.2854
0.694,0.2855
0.6943,0.2855
0.6947,0.2856
0.695,0.2857
0.6954,0.2859
0.6957,0.2861
0.6961,0.2863
0.6966,0.2865
0.6971,0.2868
0.6975,0.2869
0.6978,0.287
0.6981,0.2869
0.6982,0.2869
0.6984,0.2869
0.6986,0.2869
0.6989,0.2869
0.6992,0.287
0.6995,0.2871
0.6999,0.2873
0.7003,0.2875
0.7009,0.2878
0.7014,0.2881
0.7019,0.2884
0.7022,0.2884
0.7024,0.2883
0.7026,0.2883
0.7028,0.2882
0.7031,0.2883
0.7034,0.2883
0.7037,0.2884
0.704,0.2886
0.7044,0.2887
0.7047,0.2887
0.7051,0.2888
0.7054,0.2889
0.7057,0.289
0.706,0.2891
0.7063,0.2892
0.7067,0.2894
0.7071,0.2897
0.7074,0.2898
0.7079,0.2899
0.7083,0.2902
0.7088,0.2904
0.7091,0.2905
0.7094,0.2905
0.7096,0.2905
0.7098,0.2904
0.71,0.2904
0.7102,0.2905
0.7105,0.2904
0.7108,0.2906
0.7112,0.2907
0.7116,0.291
0.7121,0.2912
0.7126,0.2914
0.7132,0.2917
0.7136,0.2919
0.7138,0.2919
0.714,0.2918
0.7142,0.2918
0.7144,0.2918
0.7147,0.2918
0.715,0.2919
0.7153,0.2919
0.7157,0.2921
0.716,0.2922
0.7164,0.2924
0.7167,0.2926
0.717,0.2927
0.7173,0.2927
0.7176,0.2927
0.718,0.2928
0.7183,0.2929
0.7187,0.293
0.7191,0.2932
0.7196,0.2935
0.7201,0.2938
0.7205,0.294
0.7208,0.294
0.721,0.294
0.7212,0.2939
0.7214,0.2939
0.7216,0.2939
0.7219,0.2939
0.7222,0.294
0.7225,0.2942
0.7229,0.2944
0.7234,0.2945
0.724,0.2949
0.7245,0.2952
0.7249,0.2954
0.7252,0.2954
0.7254,0.2953
0.7256,0.2953
0.7258,0.2953
0.7261,0.2953
0.7264,0.2953
0.7267,0.2954
0.727,0.2955
0.7274,0.2956
0.7277,0.2958
0.728,0.2959
0.7284,0.296
0.7287,0.2961
0.729,0.2961
0.7293,0.2962
0.7297,0.2964
0.73,0.2965
0.7304,0.2966
0.7309,0.2969
0.7314,0.2971
0.7318,0.2974
0.7322,0.2975
0.7324,0.2975
0.7326,0.2974
0.7328,0.2974
0.733,0.2974
0.7332,0.2973
0.7335,0.2973
0.7338,0.2975
0.7342,0.2977
0.7347,0.298
0.7352,0.2983
0.7358,0.2987
0.7363,0.2989
0.7366,0.2989
0.7368,0.2989
0.737,0.2987
0.7372,0.2986
0.7374,0.2986
0.7377,0.2987
0.738,0.2989
0.7383,0.299
0.7387,0.2992
0.739,0.2993
0.7394,0.2993
0.7397,0.2994
0.74,0.2995
0.7404,0.2996
0.7407,0.2997
0.741,0.2999
0.7414,0.3
0.7418,0.3001
0.7422,0.3002
0.7426,0.3005
0.7431,0.3008
0.7435,0.3009
0.7438,0.301
0.744,0.3009
0.7442,0.3009
0.7444,0.3009
0.7446,0.3009
0.7449,0.3009
0.7452,0.3009
0.7455,0.3011
0.7459,0.3012
0.7464,0.3015
0.747,0.3018
0.7475,0.3021
0.7479,0.3023
0.7482,0.3023
0.7484,0.3023
0.7486,0.3022
0.7488,0.3022
0.7491,0.3023
0.7494,0.3023
0.7497,0.3024
0.75,0.3025
0.7504,0.3027
0.7507,0.3028
0.7511,0.3029
0.7514,0.3029
0.7517,0.3031
0.752,0.3032
0.7523,0.3032
0.7527,0.3033
0.753,0.3035
0.7534,0.3037
0.7539,0.3039
0.7544,0.3042
0.7548,0.3044
0.7552,0.3046
0.7554,0.3045
0.7556,0.3044
0.7557,0.3043
0.756,0.3043
0.7562,0.3043
0.7565,0.3044
0.7568,0.3045
0.7572,0.3047
0.7576,0.3049
0.7582,0.3052
0.7587,0.3055
0.7592,0.3058
0.7596,0.3059
0.7598,0.3058
0.76,0.3057
0.7602,0.3057
0.7604,0.3058
0.7607,0.3058
0.761,0.3059
0.7613,0.306
0.7617,0.3061
0.762,0.3063
0.7624,0.3064
0.7627,0.3065
0.763,0.3066
0.7633,0.3067
0.7636,0.3068
0.764,0.3069
0.7644,0.3071
0.7647,0.3073
0.7652,0.3074
0.7656,0.3076
0.7661,0.3079
0.7665,0.308
0.7667,0.308
0.767,0.3079
0.7671,0.308
0.7674,0.3079
0.7676,0.3079
0.7679,0.308
0.7682,0.3081
0.7685,0.3082
0.7689,0.3083
0.7694,0.3086
0.77,0.309
0.7705,0.3092
0.7709,0.3094
0.7712,0.3094
0.7714,0.3093
0.7715,0.3093
0.7718,0.3093
0.772,0.3093
0.7723,0.3094
0.7727,0.3096
0.773,0.3097
0.7734,0.3098
0.7737,0.3099
0.774,0.31
0.7743,0.3101
0.7747,0.3102
0.775,0.3103
0.7753,0.3104
0.7757,0.3106
0.7761,0.3108
0.7765,0.311
0.7769,0.3112
0.7774,0.3113
0.7778,0.3115
0.7781,0.3115
0.7783,0.3115
0.7785,0.3114
0.7787,0.3115
0.779,0.3115
0.7792,0.3115
0.7795,0.3116
0.7799,0.3117
0.7802,0.3119
0.7807,0.3121
0.7812,0.3124
0.7818,0.3127
0.7822,0.3129
0.7826,0.313
0.7828,0.313
0.783,0.3129
0.7832,0.3129
0.7834,0.3129
0.7837,0.3129
0.784,0.313
0.7843,0.3131
0.7847,0.3133
0.785,0.3134
0.7854,0.3135
0.7857,0.3135
0.786,0.3136
0.7863,0.3138
0.7867,0.3139
0.787,0.3141
0.7874,0.3141
0.7878,0.3143
0.7882,0.3146
0.7887,0.3148
0.7891,0.315
0.7895,0.3151
0.7897,0.315
0.7899,0.315
0.7901,0.3149
0.7903,0.3149
0.7906,0.3149
0.7909,0.3149
0.7912,0.315
0.7915,0.3152
0.792,0.3154
0.7925,0.3157
0.793,0.316
0.7935,0.3163
0.7939,0.3164
0.7942,0.3163
0.7944,0.3163
0.7946,0.3163
0.7948,0.3163
0.7951,0.3164
0.7954,0.3163
0.7957,0.3165
0.796,0.3166
0.7964,0.3168
0.7967,0.3169
0.797,0.3169
0.7973,0.317
0.7977,0.3171
0.798,0.3172
0.7983,0.3174
0.7987,0.3175
0.7991,0.3176
0.7995,0.3178
0.8,0.318
0.8004,0.3182
0.8008,0.3183
0.8011,0.3184
0.8014,0.3183
0.8015,0.3183
0.8017,0.3183
0.8019,0.3183
0.8022,0.3184
0.8025,0.3184
0.8028,0.3185
0.8032,0.3186
0.8037,0.3189
0.8042,0.3191
0.8047,0.3195
0.8052,0.3198
0.8056,0.3199
0.8058,0.3199
0.806,0.3198
0.8062,0.3197
0.8064,0.3197
0.8067,0.3197
0.807,0.3199
0.8074,0.32
0.8077,0.3201
0.808,0.3202
0.8084,0.3204
0.8087,0.3205
0.809,0.3205
0.8093,0.3206
0.8097,0.3207
0.81,0.3208
0.8104,0.3209
0.8108,0.321
0.8112,0.3212
0.8117,0.3215
0.8121,0.3216
0.8125,0.3217
0.8127,0.3218
0.8129,0.3219
0.8131,0.3217
0.8133,0.3216
0.8136,0.3217
0.8138,0.3218
0.8142,0.3218
0.8145,0.322
0.815,0.3222
0.8155,0.3225
0.816,0.3229
0.8165,0.3232
0.8169,0.3233
0.8172,0.3233
0.8174,0.3232
0.8176,0.323
0.8178,0.323
0.8181,0.3231
0.8184,0.3232
0.8187,0.3232
0.819,0.3233
0.8193,0.3235
0.8197,0.3237
0.82,0.3238
0.8203,0.3238
0.8206,0.3239
0.821,0.324
0.8213,0.3241
0.8217,0.3243
0.8221,0.3245
0.8225,0.3246
0.823,0.3247
0.8234,0.325
0.8238,0.3252
0.8241,0.3253
0.8243,0.3252
0.8245,0.3251
0.8247,0.3251
0.825,0.3251
0.8252,0.3252
0.8255,0.3253
0.8259,0.3254
0.8263,0.3255
0.8267,0.3257
0.8272,0.326
0.8278,0.3263
0.8282,0.3265
0.8285,0.3266
0.8287,0.3265
0.8289,0.3265
0.8291,0.3264
0.8294,0.3264
0.8297,0.3266
0.83,0.3267
0.8303,0.3267
0.8306,0.3268
0.831,0.327
0.8314,0.3272
0.8317,0.3273
0.832,0.3273
0.8323,0.3275
0.8327,0.3275
0.833,0.3276
0.8334,0.3277
0.8338,0.3278
0.8342,0.3281
0.8346,0.3283
0.8351,0.3285
0.8355,0.3287
0.8357,0.3287
0.8359,0.3287
0.8361,0.3286
0.8363,0.3285
0.8366,0.3285
0.8369,0.3286
0.8372,0.3287
0.8375,0.3289
0.838,0.3291
0.8384,0.3294
0.839,0.3297
0.8395,0.3299
0.8399,0.33
0.8402,0.33
0.8404,0.33
0.8406,0.33
0.8408,0.3299
0.8411,0.3299
0.8413,0.33
0.8417,0.3302
0.842,0.3303
0.8423,0.3304
0.8427,0.3305
0.843,0.3305
0.8434,0.3307
0.8437,0.3309
0.844,0.3309
0.8444,0.331
0.8447,0.3311
0.8451,0.3312
0.8455,0.3314
0.8459,0.3316
0.8464,0.3318
0.8468,0.332
0.8471,0.3321
0.8473,0.3321
0.8475,0.3321
0.8477,0.332
0.8479,0.3319
0.8482,0.332
0.8485,0.332
0.8489,0.3321
0.8493,0.3324
0.8497,0.3327
0.8503,0.333
0.8508,0.3332
0.8512,0.3333
0.8516,0.3334
0.8518,0.3334
0.852,0.3335
0.8522,0.3335
0.8524,0.3334
0.8527,0.3334
0.853,0.3335
0.8533,0.3335
0.8537,0.3337
0.854,0.3339
0.8544,0.334
0.8547,0.3341
0.855,0.3342
0.8554,0.3343
0.8557,0.3344
0.8561,0.3345
0.8564,0.3347
0.8568,0.3347
0.8572,0.3349
0.8577,0.3352
0.8581,0.3354
0.8585,0.3356
0.8588,0.3356
0.859,0.3355
0.8591,0.3355
0.8593,0.3354
0.8596,0.3354
0.8599,0.3355
0.8602,0.3357
0.8606,0.3358
0.861,0.3359
0.8615,0.3362
0.8621,0.3366
0.8625,0.3368
0.8629,0.3368
0.8631,0.3369
0.8633,0.3368
0.8635,0.3367
0.8638,0.3367
0.864,0.3369
0.8643,0.337
0.8646,0.337
0.865,0.3371
0.8654,0.3373
0.8657,0.3375
0.8661,0.3375
0.8664,0.3377
0.8667,0.3378
0.8671,0.3379
0.8674,0.3379
0.8678,0.338
0.8681,0.3382
0.8685,0.3385
0.869,0.3387
0.8694,0.3389
0.8698,0.3389
0.8701,0.3389
0.8703,0.3389
0.8705,0.339
0.8707,0.3389
0.8709,0.3389
0.8712,0.339
0.8715,0.3392
0.8718,0.3392
0.8722,0.3394
0.8727,0.3396
0.8733,0.3399
0.8738,0.3403
0.8742,0.3405
0.8745,0.3406
0.8747,0.3405
0.8749,0.3404
0.8751,0.3404
0.8754,0.3403
0.8757,0.3404
0.876,0.3406
0.8763,0.3407
0.8767,0.3408
0.877,0.341
0.8774,0.3411
0.8777,0.3412
0.878,0.3412
0.8784,0.3414
0.8787,0.3415
0.8791,0.3417
0.8794,0.3418
0.8798,0.342
0.8802,0.3422
0.8807,0.3423
0.8811,0.3425
0.8814,0.3426
0.8817,0.3427
0.8819,0.3426
0.8821,0.3426
0.8823,0.3426
0.8826,0.3426
0.8828,0.3426
0.8832,0.3427
0.8836,0.343
0.884,0.3431
0.8845,0.3434
0.885,0.3438
0.8855,0.3441
0.8859,0.3442
0.8861,0.3441
0.8863,0.344
0.8865,0.344
0.8868,0.344
0.887,0.3441
0.8873,0.3443
0.8877,0.3444
0.888,0.3445
0.8883,0.3447
0.8887,0.3448
0.889,0.3449
0.8893,0.345
0.8897,0.345
0.89,0.3451
0.8903,0.3452
0.8907,0.3454
0.8911,0.3455
0.8915,0.3457
0.8919,0.3459
0.8924,0.3462
0.8928,0.3464
0.8931,0.3465
0.8933,0.3464
0.8935,0.3464
0.8937,0.3463
0.8939,0.3463
0.8942,0.3464
0.8945,0.3466
0.8949,0.3466
0.8953,0.3468
0.8958,0.3471
0.8963,0.3474
0.8969,0.3477
0.8973,0.3479
0.8975,0.3479
0.8977,0.3479
0.8979,0.3478
0.8981,0.3478
0.8984,0.3478
0.8986,0.3479
0.899,0.348
0.8993,0.3482
0.8997,0.3483
0.9,0.3484
0.9004,0.3485
0.9007,0.3486
0.901,0.3486
0.9014,0.3488
0.9017,0.349
0.902,0.3491
0.9024,0.3492
0.9028,0.3493
0.9033,0.3494
0.9037,0.3498
0.9042,0.35
0.9045,0.3501
0.9047,0.35
0.9049,0.35
0.9051,0.3499
0.9053,0.35
0.9056,0.3501
0.9059,0.3502
0.9062,0.3502
0.9066,0.3503
0.907,0.3507
0.9076,0.351
0.9081,0.3512
0.9085,0.3513
0.9089,0.3515
0.9091,0.3515
0.9093,0.3515
0.9095,0.3514
0.9097,0.3515
0.91,0.3515
0.9103,0.3516
0.9107,0.3518
0.911,0.352
0.9114,0.3521
0.9118,0.3522
0.9121,0.3524
0.9124,0.3525
0.9127,0.3525
0.9131,0.3525
0.9134,0.3525
0.9138,0.3527
0.9141,0.353
0.9146,0.3532
0.915,0.3534
0.9155,0.3536
0.9158,0.3537
0.9161,0.3537
0.9163,0.3537
0.9164,0.3536
0.9167,0.3537
0.9169,0.3537
0.9172,0.3537
0.9175,0.3538
0.9179,0.354
0.9183,0.3543
0.9188,0.3546
0.9194,0.3549
0.9199,0.3551
0.9203,0.3552
0.9205,0.3552
0.9207,0.3553
0.9209,0.3553
0.9211,0.3552
0.9214,0.3553
0.9217,0.3554
0.922,0.3555
0.9224,0.3556
0.9227,0.3558
0.9231,0.3558
0.9234,0.3559
0.9237,0.356
0.924,0.3561
0.9243,0.3561
0.9247,0.3562
0.925,0.3564
0.9254,0.3566
0.9258,0.3568
0.9263,0.357
0.9267,0.3572
0.9272,0.3574
0.9275,0.3575
0.9277,0.3575
0.9279,0.3575
0.9281,0.3574
0.9283,0.3574
0.9286,0.3574
0.9289,0.3575
0.9292,0.3577
0.9296,0.3579
0.9301,0.3581
0.9306,0.3584
0.9312,0.3587
0.9316,0.3589
0.9319,0.3589
0.9321,0.359
0.9323,0.3589
0.9325,0.3588
0.9327,0.3588
0.933,0.3589
0.9333,0.359
0.9337,0.3591
0.934,0.3592
0.9343,0.3594
0.9347,0.3595
0.935,0.3597
0.9353,0.3597
0.9357,0.3598
0.936,0.3599
0.9364,0.36
0.9367,0.3602
0.9371,0.3603
0.9375,0.3606
0.938,0.3608
0.9385,0.361
0.9388,0.361
0.9391,0.3611
0.9393,0.3611
0.9395,0.361
0.9397,0.361
0.9399,0.361
0.9402,0.3611
0.9405,0.3612
0.9409,0.3614
0.9413,0.3616
0.9418,0.3619
0.9424,0.3623
0.9428,0.3624
0.9432,0.3625
0.9434,0.3626
0.9436,0.3625
0.9438,0.3625
0.9441,0.3625
0.9444,0.3626
0.9447,0.3627
0.945,0.3627
0.9453,0.3628
0.9457,0.3629
0.946,0.363
0.9464,0.3631
0.9467,0.3633
0.947,0.3634
0.9474,0.3635
0.9477,0.3637
0.9481,0.3639
0.9484,0.364
0.9488,0.3641
0.9493,0.3643
0.9497,0.3646
0.9501,0.3647
0.9504,0.3647
0.9506,0.3646
0.9508,0.3646
0.951,0.3647
0.9513,0.3647
0.9515,0.3648
0.9518,0.3648
0.9522,0.3649
0.9526,0.3651
0.9531,0.3654
0.9536,0.3657
0.9541,0.366
0.9546,0.3661
0.9549,0.3662
0.9551,0.3662
0.9553,0.3662
0.9555,0.3661
0.9558,0.3661
0.956,0.3662
0.9564,0.3663
0.9567,0.3664
0.9571,0.3665
0.9574,0.3667
0.9578,0.3668
0.9581,0.3669
0.9584,0.3671
0.9587,0.3672
0.959,0.3672
0.9594,0.3673
0.9597,0.3675
0.9601,0.3676
0.9606,0.3678
0.961,0.3681
0.9614,0.3682
0.9618,0.3682
0.962,0.3682
0.9622,0.3682
0.9624,0.3682
0.9626,0.3682
0.9629,0.3682
0.9632,0.3683
0.9635,0.3686
0.9639,0.3687
0.9644,0.3688
0.9649,0.3691
0.9655,0.3695
0.9659,0.3697
0.9662,0.3698
0.9664,0.3698
0.9666,0.3697
0.9668,0.3697
0.9671,0.3697
0.9674,0.3698
0.9677,0.3698
0.968,0.3699
0.9684,0.37
0.9687,0.3701
0.969,0.3703
0.9694,0.3703
0.9697,0.3704
0.97,0.3706
0.9703,0.3707
0.9707,0.3708
0.971,0.3709
0.9714,0.3711
0.9718,0.3714
0.9723,0.3717
0.9728,0.3718
0.9732,0.3719
0.9735,0.3719
0.9736,0.3719
0.9738,0.3719
0.974,0.3718
0.9743,0.3718
0.9745,0.3718
0.9748,0.372
0.9752,0.3721
0.9757,0.3723
0.9762,0.3726
0.9767,0.373
0.9772,0.3732
0.9776,0.3734
0.9778,0.3733
0.978,0.3733
0.9782,0.3733
0.9784,0.3732
0.9787,0.3732
0.979,0.3733
0.9793,0.3734
0.9797,0.3735
0.98,0.3736
0.9804,0.3737
0.9807,0.3739
0.981,0.3741
0.9814,0.3741
0.9817,0.3743
0.982,0.3744
0.9824,0.3746
0.9828,0.3747
0.9832,0.3748
0.9836,0.3751
0.9841,0.3753
0.9845,0.3755
0.9848,0.3755
0.985,0.3755
0.9852,0.3755
0.9854,0.3753
0.9856,0.3754
0.9859,0.3755
0.9862,0.3756
0.9865,0.3757
0.9869,0.3759
0.9874,0.376
0.9879,0.3763
0.9885,0.3766
0.9889,0.3769
0.9892,0.377
0.9894,0.3769
0.9896,0.3769
0.9898,0.3769
0.9901,0.3769
0.9904,0.3769
0.9907,0.3769
0.991,0.3771
0.9914,0.3773
0.9917,0.3774
0.9921,0.3775
0.9924,0.3776
0.9927,0.3776
0.993,0.3777
0.9933,0.3777
0.9937,0.3779
0.9941,0.3781
0.9944,0.3783
0.9949,0.3785
0.9954,0.3788
0.9958,0.379
0.9962,0.379
0.9964,0.379
0.9966,0.3789
0.9968,0.3789
0.997,0.3789
0.9972,0.379
0.9975,0.379
0.9978,0.3791
0.9982,0.3792
0.9986,0.3794
0.9991,0.3797
0.9997,0.38
1.0002,0.3803
1.0006,0.3804
1.0008,0.3805
1.001,0.3804
1.0012,0.3803
1.0014,0.3803
1.0017,0.3803
1.002,0.3804
1.0023,0.3806
1.0027,0.3807
1.003,0.3809
1.0034,0.381
1.0037,0.3811
1.0041,0.3812
1.0043,0.3813
1.0046,0.3813
1.005,0.3814
1.0053,0.3815
1.0057,0.3817
1.0061,0.3818
1.0066,0.382
1.0071,0.3823
1.0075,0.3825
1.0078,0.3825
1.008,0.3825
1.0082,0.3825
1.0084,0.3824
1.0086,0.3824
1.0089,0.3825
1.0092,0.3826
1.0095,0.3828
1.0099,0.3829
1.0104,0.3831
1.0109,0.3834
1.0115,0.3838
1.0119,0.384
1.0122,0.384
1.0124,0.384
1.0126,0.3839
1.0128,0.3839
1.0131,0.3839
1.0134,0.3839
1.0137,0.384
1.014,0.3841
1.0144,0.3841
1.0147,0.3843
1.015,0.3845
1.0154,0.3845
1.0157,0.3846
1.016,0.3848
1.0163,0.3849
1.0167,0.385
1.0171,0.3852
1.0175,0.3853
1.0179,0.3855
1.0184,0.3857
1.0188,0.3859
1.0191,0.386
1.0194,0.3861
1.0196,0.386
1.0198,0.3859
1.02,0.386
1.0202,0.386
1.0205,0.386
1.0208,0.3861
1.0212,0.3863
1.0217,0.3865
1.0222,0.3868
1.0227,0.3871
1.0232,0.3874
1.0236,0.3875
1.0238,0.3875
1.024,0.3874
1.0242,0.3874
1.0244,0.3874
1.0247,0.3875
1.025,0.3876
1.0253,0.3876
1.0256,0.3877
1.026,0.3878
1.0263,0.3879
1.0267,0.3881
1.027,0.3882
1.0273,0.3883
1.0277,0.3883
1.028,0.3885
1.0284,0.3887
1.0288,0.3888
1.0292,0.389
1.0296,0.3891
1.0301,0.3893
1.0305,0.3895
1.0308,0.3895
1.031,0.3895
1.0312,0.3896
1.0314,0.3894
1.0316,0.3894
1.0319,0.3896
1.0322,0.3896
1.0325,0.3897
1.0329,0.39
1.0334,0.3903
1.034,0.3906
1.0345,0.3908
1.0349,0.391
1.0352,0.3911
1.0354,0.3911
1.0356,0.391
1.0358,0.391
1.0361,0.391
1.0364,0.391
1.0367,0.3911
1.037,0.3913
1.0373,0.3913
1.0377,0.3915
1.038,0.3916
1.0384,0.3917
1.0387,0.3918
1.039,0.3919
1.0393,0.392
1.0397,0.392
1.0401,0.3922
1.0405,0.3925
1.0409,0.3927
1.0414,0.3929
1.0418,0.3932
1.0422,0.3933
1.0424,0.3932
1.0426,0.3931
1.0428,0.3931
1.043,0.3931
1.0432,0.3932
1.0435,0.3933
1.0438,0.3934
1.0442,0.3935
1.0447,0.3937
1.0452,0.394
1.0457,0.3943
1.0462,0.3945
1.0466,0.3945
1.0469,0.3946
1.047,0.3946
1.0472,0.3945
1.0475,0.3945
1.0477,0.3946
1.048,0.3947
1.0484,0.3949
1.0487,0.395
1.0491,0.3951
1.0494,0.3952
1.0497,0.3953
1.05,0.3954
1.0503,0.3955
1.0507,0.3955
1.051,0.3956
1.0514,0.3959
1.0518,0.3961
1.0522,0.3962
1.0526,0.3964
1.0531,0.3966
1.0535,0.3968
1.0538,0.3969
1.054,0.3968
1.0542,0.3969
1.0544,0.3968
1.0546,0.3967
1.0548,0.3967
1.0552,0.3968
1.0555,0.3969
1.0559,0.3972
1.0564,0.3975
1.057,0.3979
1.0575,0.3981
1.0579,0.3982
1.0582,0.3983
1.0584,0.3983
1.0586,0.3982
1.0588,0.3983
1.0591,0.3982
1.0594,0.3983
1.0597,0.3984
1.06,0.3985
1.0603,0.3987
1.0607,0.3987
1.061,0.3988
1.0613,0.399
1.0616,0.3991
1.062,0.3992
1.0623,0.3992
1.0627,0.3994
1.0631,0.3996
1.0635,0.3997
1.0639,0.3999
1.0644,0.4002
1.0648,0.4005
1.0651,0.4006
1.0654,0.4005
1.0656,0.4004
1.0658,0.4004
1.066,0.4004
1.0662,0.4005
1.0665,0.4006
1.0668,0.4007
1.0672,0.4009
1.0677,0.401
1.0682,0.4013
1.0687,0.4016
1.0692,0.4019
1.0695,0.402
1.0698,0.402
1.07,0.4019
1.0702,0.4018
1.0704,0.4019
1.0707,0.402
1.071,0.4021
1.0713,0.4023
1.0716,0.4024
1.072,0.4024
1.0724,0.4026
1.0727,0.4028
1.073,0.4028
1.0733,0.4029
1.0737,0.4031
1.074,0.4032
1.0744,0.4033
1.0747,0.4035
1.0751,0.4037
1.0756,0.4039
1.0761,0.4041
1.0765,0.4042
1.0768,0.4043
1.077,0.4042
1.0772,0.4042
1.0774,0.4042
1.0776,0.4043
1.0779,0.4044
1.0782,0.4044
1.0785,0.4045
1.0789,0.4047
1.0794,0.405
1.0799,0.4053
1.0805,0.4056
1.0809,0.4058
1.0812,0.4057
1.0814,0.4057
1.0816,0.4057
1.0818,0.4056
1.0821,0.4056
1.0823,0.4057
1.0827,0.4059
1.083,0.406
1.0834,0.4062
1.0837,0.4063
1.0841,0.4065
1.0844,0.4067
1.0847,0.4067
1.085,0.4067
1.0854,0.4069
1.0857,0.4071
1.0861,0.4073
1.0865,0.4074
1.0869,0.4075
1.0874,0.4078
1.0878,0.408
1.0881,0.408
1.0884,0.408
1.0886,0.408
1.0887,0.408
1.089,0.408
1.0892,0.408
1.0895,0.4079
1.0899,0.4081
1.0902,0.4084
1.0907,0.4087
1.0912,0.409
1.0918,0.4094
1.0923,0.4095
1.0926,0.4096
1.0928,0.4096
1.093,0.4095
1.0932,0.4095
1.0934,0.4095
1.0937,0.4095
1.094,0.4096
1.0943,0.4097
1.0947,0.4098
1.095,0.4099
1.0954,0.4101
1.0957,0.4102
1.0961,0.4102
1.0964,0.4104
1.0967,0.4106
1.097,0.4107
1.0974,0.4108
1.0978,0.4109
1.0982,0.411
1.0986,0.4114
1.0991,0.4116
1.0995,0.4117
1.0998,0.4118
1.1,0.4118
1.1001,0.4118
1.1003,0.4117
1.1006,0.4116
1.1009,0.4118
1.1012,0.4119
1.1015,0.4121
1.102,0.4123
1.1024,0.4125
1.103,0.4128
1.1035,0.4131
1.1039,0.4134
1.1042,0.4135
1.1044,0.4134
1.1046,0.4133
1.1048,0.4132
1.105,0.4132
1.1053,0.4134
1.1056,0.4135
1.106,0.4137
1.1063,0.4138
1.1067,0.4139
1.1071,0.414
1.1074,0.4141
1.1077,0.4142
1.108,0.4143
1.1084,0.4143
1.1087,0.4145
1.1091,0.4146
1.1095,0.4148
1.1099,0.415
1.1104,0.4152
1.1108,0.4154
1.1111,0.4155
1.1113,0.4155
1.1115,0.4155
1.1117,0.4155
1.112,0.4155
1.1122,0.4155
1.1125,0.4155
1.1129,0.4156
1.1132,0.4159
1.1137,0.4162
1.1142,0.4164
1.1148,0.4166
1.1152,0.4168
1.1155,0.417
1.1157,0.4171
1.1159,0.417
1.1162,0.4169
1.1164,0.4169
1.1167,0.417
1.117,0.4171
1.1173,0.4173
1.1176,0.4174
1.118,0.4175
1.1184,0.4176
1.1187,0.4177
1.119,0.4178
1.1194,0.4179
1.1197,0.418
1.12,0.4182
1.1204,0.4183
1.1208,0.4185
1.1212,0.4187
1.1217,0.4189
1.1221,0.4191
1.1225,0.4192
1.1227,0.4192
1.1229,0.4192
1.1231,0.4192
1.1233,0.4192
1.1236,0.4193
1.1239,0.4193
1.1242,0.4193
1.1245,0.4194
1.125,0.4196
1.1254,0.42
1.126,0.4203
1.1265,0.4206
1.1269,0.4208
1.1272,0.4208
1.1274,0.4207
1.1276,0.4206
1.1278,0.4206
1.128,0.4206
1.1283,0.4207
1.1286,0.4208
1.129,0.421
1.1293,0.421
1.1297,0.4211
1.13,0.4213
1.1304,0.4215
1.1307,0.4216
1.131,0.4217
1.1314,0.4217
1.1317,0.4219
1.1321,0.4219
1.1325,0.4222
1.1329,0.4225
1.1334,0.4226
1.1338,0.4228
1.1341,0.4229
1.1343,0.4228
1.1345,0.4228
1.1347,0.4228
1.1349,0.4227
1.1352,0.4227
1.1355,0.4228
1.1359,0.423
1.1363,0.4233
1.1368,0.4235
1.1373,0.4237
1.1378,0.424
1.1383,0.4242
1.1386,0.4242
1.1388,0.4242
1.1389,0.4242
1.1392,0.4242
1.1394,0.4242
1.1397,0.4243
1.14,0.4244
1.1403,0.4245
1.1406,0.4246
1.141,0.4248
1.1414,0.4249
1.1417,0.425
1.142,0.4251
1.1423,0.4252
1.1427,0.4252
1.143,0.4254
1.1434,0.4255
1.1438,0.4257
1.1442,0.4259
1.1447,0.4261
1.1451,0.4263
1.1455,0.4264
1.1457,0.4265
1.1459,0.4264
1.1461,0.4263
1.1463,0.4262
1.1466,0.4263
1.1469,0.4264
1.1472,0.4265
1.1476,0.4266
1.148,0.4269
1.1485,0.4272
1.1491,0.4276
1.1496,0.4278
1.1499,0.428
1.1501,0.4279
1.1503,0.4278
1.1505,0.4278
1.1507,0.4277
1.151,0.4277
1.1513,0.4278
1.1516,0.428
1.152,0.4281
1.1524,0.4283
1.1527,0.4284
1.1531,0.4285
1.1534,0.4286
1.1537,0.4287
1.154,0.4288
1.1544,0.4289
1.1547,0.429
1.1551,0.4292
1.1555,0.4294
1.156,0.4296
1.1564,0.4299
1.1568,0.4299
1.1571,0.43
1.1573,0.43
1.1575,0.43
1.1577,0.4299
1.1579,0.4298
1.1582,0.4298
1.1585,0.43
1.1588,0.4302
1.1593,0.4304
1.1597,0.4306
1.1603,0.4309
1.1608,0.4311
1.1612,0.4313
1.1615,0.4314
1.1617,0.4314
1.1619,0.4313
1.1621,0.4313
1.1624,0.4313
1.1627,0.4314
1.163,0.4314
1.1633,0.4315
1.1637,0.4317
1.1641,0.432
1.1644,0.4321
1.1647,0.4321
1.165,0.4321
1.1654,0.4322
1.1657,0.4323
1.166,0.4325
1.1664,0.4327
1.1668,0.4328
1.1672,0.433
1.1677,0.4332
1.1681,0.4334
1.1685,0.4336
1.1687,0.4335
1.1689,0.4334
1.1691,0.4333
1.1693,0.4332
1.1696,0.4334
1.1699,0.4336
1.1702,0.4337
1.1706,0.4338
1.171,0.4341
1.1715,0.4344
1.1721,0.4347
1.1726,0.4348
1.1729,0.435
1.1731,0.435
1.1733,0.435
1.1735,0.4349
1.1738,0.4348
1.174,0.4348
1.1744,0.4349
1.1747,0.435
1.175,0.4352
1.1754,0.4354
1.1757,0.4355
1.176,0.4357
1.1764,0.4358
1.1767,0.4358
1.177,0.4359
1.1774,0.436
1.1777,0.4362
1.1781,0.4363
1.1785,0.4364
1.179,0.4366
1.1794,0.4368
1.1798,0.437
1.1801,0.4371
1.1803,0.4371
1.1805,0.437
1.1807,0.4369
1.1809,0.4369
1.1812,0.437
1.1815,0.4371
1.1819,0.4373
1.1823,0.4375
1.1828,0.4376
1.1833,0.438
1.1839,0.4383
1.1843,0.4385
1.1845,0.4384
1.1847,0.4384
1.1849,0.4383
1.1851,0.4384
1.1854,0.4384
1.1857,0.4385
1.186,0.4386
1.1863,0.4387
1.1867,0.4388
1.187,0.4389
1.1874,0.4391
1.1877,0.4392
1.188,0.4392
1.1883,0.4393
1.1887,0.4395
1.189,0.4396
1.1894,0.4398
1.1898,0.4399
1.1903,0.4401
1.1907,0.4403
1.1911,0.4404
1.1914,0.4405
1.1917,0.4406
1.1918,0.4405
1.192,0.4404
1.1923,0.4404
1.1925,0.4405
1.1928,0.4406
1.1932,0.4408
1.1936,0.4409
1.194,0.4411
1.1946,0.4414
1.1951,0.4418
1.1956,0.4419
1.1959,0.4419
1.1961,0.4419
1.1963,0.4418
1.1965,0.4418
1.1967,0.4419
1.197,0.442
1.1973,0.442
1.1977,0.4422
1.198,0.4423
1.1984,0.4425
1.1987,0.4425
1.1991,0.4427
1.1994,0.4428
1.1997,0.4428
1.2,0.4428
1.2003,0.4429
1.2007,0.4431
1.2011,0.4433
1.2015,0.4435
1.202,0.4437
1.2024,0.4439
1.2028,0.444
1.203,0.444
1.2032,0.4439
1.2034,0.444
1.2036,0.444
1.2039,0.444
1.2042,0.444
1.2045,0.4442
1.2049,0.4443
1.2053,0.4444
1.2059,0.4447
1.2064,0.4452
1.2069,0.4454
1.2072,0.4455
1.2075,0.4454
1.2076,0.4453
1.2079,0.4453
1.2081,0.4453
1.2084,0.4454
1.2087,0.4455
1.209,0.4456
1.2093,0.4457
1.2097,0.4459
1.2101,0.4461
1.2104,0.4461
1.2107,0.4462
1.211,0.4463
1.2113,0.4463
1.2117,0.4463
1.212,0.4465
1.2124,0.4467
1.2128,0.447
1.2133,0.4472
1.2138,0.4474
1.2142,0.4476
1.2145,0.4476
1.2147,0.4475
1.2149,0.4474
1.215,0.4474
1.2153,0.4474
1.2155,0.4475
1.2159,0.4476
1.2162,0.4478
1.2166,0.448
1.2171,0.4482
1.2177,0.4484
1.2182,0.4487
1.2186,0.4489
1.2188,0.4489
1.219,0.4489
1.2192,0.4489
1.2195,0.4488
1.2197,0.4489
1.22,0.449
1.2203,0.4491
1.2207,0.4491
1.221,0.4492
1.2214,0.4494
1.2217,0.4495
1.2221,0.4495
1.2224,0.4496
1.2227,0.4497
1.223,0.4498
1.2234,0.45
1.2238,0.4502
1.2242,0.4504
1.2246,0.4505
1.225,0.4506
1.2255,0.4508
1.2258,0.451
1.226,0.451
1.2262,0.451
1.2264,0.451
1.2267,0.4509
1.2269,0.451
1.2272,0.451
1.2275,0.4511
1.2279,0.4513
1.2284,0.4516
1.2289,0.4519
1.2295,0.4522
1.2299,0.4524
1.2303,0.4525
1.2305,0.4524
1.2306,0.4523
1.2308,0.4522
1.2311,0.4523
1.2314,0.4523
1.2317,0.4524
1.232,0.4525
1.2324,0.4527
1.2327,0.4527
1.2331,0.4528
1.2334,0.4528
1.2337,0.453
1.234,0.4532
1.2343,0.4533
1.2347,0.4534
1.235,0.4535
1.2354,0.4536
1.2358,0.4538
1.2363,0.454
1.2368,0.4543
1.2372,0.4545
1.2374,0.4545
1.2376,0.4544
1.2378,0.4543
1.238,0.4543
1.2383,0.4544
1.2385,0.4544
1.2388,0.4545
1.2392,0.4546
1.2396,0.4549
1.2401,0.4551
1.2407,0.4554
1.2412,0.4556
1.2416,0.4559
1.2419,0.4559
1.242,0.4558
1.2422,0.4557
1.2424,0.4557
1.2427,0.4558
1.243,0.4559
1.2433,0.456
1.2437,0.4561
1.244,0.4564
1.2444,0.4564
1.2447,0.4565
1.2451,0.4567
1.2453,0.4567
1.2456,0.4567
1.246,0.4569
1.2463,0.457
1.2467,0.457
1.2472,0.4572
1.2476,0.4574
1.2481,0.4577
1.2485,0.4579
1.2488,0.458
1.249,0.4581
1.2492,0.458
1.2494,0.4579
1.2496,0.4579
1.2499,0.4579
1.2502,0.458
1.2505,0.458
1.2509,0.4581
1.2513,0.4584
1.2519,0.4588
1.2524,0.4591
1.2529,0.4593
1.2532,0.4594
1.2534,0.4593
1.2536,0.4592
1.2538,0.4592
1.2541,0.4593
1.2543,0.4594
1.2546,0.4594
1.255,0.4595
1.2553,0.4596
1.2557,0.4598
1.256,0.4599
1.2564,0.4601
1.2567,0.4602
1.257,0.4602
1.2573,0.4602
1.2577,0.4604
1.2581,0.4606
1.2585,0.4607
1.2589,0.4609
1.2593,0.4612
1.2598,0.4614
1.2601,0.4615
1.2604,0.4615
1.2606,0.4615
1.2608,0.4615
1.261,0.4614
1.2612,0.4614
1.2615,0.4615
1.2618,0.4616
1.2622,0.4618
1.2626,0.462
1.2631,0.4622
1.2637,0.4625
1.2642,0.4628
1.2646,0.4629
1.2649,0.4629
1.2651,0.4629
1.2652,0.4629
1.2655,0.4628
1.2657,0.4628
1.266,0.4629
1.2663,0.4631
1.2666,0.4632
1.267,0.4632
1.2674,0.4633
1.2677,0.4635
1.268,0.4636
1.2684,0.4637
1.2687,0.4639
1.269,0.4641
1.2694,0.4642
1.2698,0.4643
1.2702,0.4644
1.2706,0.4647
1.2711,0.4649
1.2715,0.465
1.2718,0.4651
1.272,0.4651
1.2722,0.4652
1.2724,0.4651
1.2726,0.465
1.2729,0.465
1.2732,0.4651
1.2735,0.4652
1.2739,0.4654
1.2744,0.4656
1.275,0.466
1.2755,0.4663
1.276,0.4665
1.2762,0.4665
1.2764,0.4665
1.2766,0.4665
1.2768,0.4664
1.2771,0.4664
1.2774,0.4666
1.2777,0.4667
1.278,0.4667
1.2783,0.4667
1.2787,0.4669
1.279,0.4671
1.2793,0.4671
1.2797,0.4671
1.28,0.4673
1.2803,0.4674
1.2807,0.4676
1.2811,0.4678
1.2814,0.468
1.2819,0.4681
1.2824,0.4683
1.2828,0.4686
1.2832,0.4688
1.2834,0.4687
1.2836,0.4685
1.2838,0.4685
1.284,0.4685
1.2842,0.4685
1.2845,0.4686
1.2848,0.4687
1.2852,0.469
1.2856,0.4691
1.2861,0.4693
1.2866,0.4696
1.2872,0.47
1.2876,0.4702
1.2879,0.4701
1.2881,0.4701
1.2882,0.47
1.2885,0.47
1.2887,0.47
1.289,0.4702
1.2893,0.4703
1.2897,0.4703
1.29,0.4705
1.2904,0.4706
1.2907,0.4707
1.291,0.4708
1.2913,0.4708
1.2917,0.471
1.292,0.4711
1.2924,0.4712
1.2928,0.4714
1.2932,0.4716
1.2936,0.4718
1.2941,0.472
1.2945,0.4721
1.2948,0.4722
1.295,0.4722
1.2952,0.4721
1.2954,0.4721
1.2956,0.4721
1.2959,0.4722
1.2962,0.4723
1.2965,0.4724
1.2969,0.4726
1.2974,0.4727
1.2979,0.473
1.2984,0.4733
1.2989,0.4735
1.2992,0.4736
1.2994,0.4737
1.2996,0.4736
1.2998,0.4736
1.3001,0.4735
1.3004,0.4735
1.3007,0.4736
1.301,0.4738
1.3014,0.4738
1.3017,0.4739
1.302,0.474
1.3023,0.4741
1.3027,0.4743
1.303,0.4743
1.3033,0.4745
1.3037,0.4746
1.3041,0.4747
1.3045,0.475
1.3049,0.4752
1.3053,0.4754
1.3058,0.4756
1.3061,0.4756
1.3064,0.4757
1.3066,0.4757
1.3068,0.4756
1.307,0.4755
1.3072,0.4755
1.3075,0.4756
1.3078,0.4757
1.3082,0.4758
1.3086,0.476
1.3091,0.4763
1.3097,0.4767
1.3102,0.4769
1.3106,0.477
1.3108,0.477
1.311,0.477
1.3112,0.477
1.3114,0.4771
1.3117,0.477
1.312,0.477
1.3123,0.4772
1.3126,0.4772
1.313,0.4773
1.3134,0.4775
1.3137,0.4777
1.314,0.4778
1.3143,0.4779
1.3147,0.478
1.315,0.478
1.3154,0.4781
1.3157,0.4782
1.3162,0.4784
1.3166,0.4786
1.3171,0.4789
1.3175,0.4791
1.3178,0.4791
1.318,0.4791
1.3182,0.479
1.3184,0.479
1.3186,0.479
1.3189,0.4791
1.3192,0.4792
1.3195,0.4793
1.3199,0.4794
1.3204,0.4797
1.3209,0.4799
1.3214,0.4802
1.3219,0.4805
1.3222,0.4806
1.3224,0.4805
1.3226,0.4804
1.3228,0.4804
1.3231,0.4805
1.3233,0.4806
1.3236,0.4807
1.324,0.4807
1.3243,0.4808
1.3247,0.481
1.325,0.4811
1.3254,0.481
1.3257,0.4811
1.326,0.4812
1.3264,0.4814
1.3267,0.4815
1.3271,0.4816
1.3275,0.4819
1.3279,0.4821
1.3283,0.4822
1.3288,0.4824
1.3291,0.4826
1.3294,0.4825
1.3296,0.4824
1.3298,0.4824
1.33,0.4824
1.3302,0.4824
1.3305,0.4825
1.3308,0.4826
1.3312,0.4828
1.3316,0.483
1.3322,0.4833
1.3327,0.4836
1.3332,0.4839
1.3336,0.484
1.3338,0.4839
1.334,0.4837
1.3342,0.4837
1.3344,0.4838
1.3347,0.4838
1.335,0.4839
1.3353,0.484
1.3357,0.4842
1.336,0.4843
1.3364,0.4844
1.3367,0.4845
1.337,0.4846
1.3374,0.4847
1.3377,0.4848
1.338,0.4849
1.3384,0.4851
1.3387,0.4851
1.3391,0.4853
1.3396,0.4855
1.34,0.4858
1.3405,0.4859
1.3408,0.486
1.341,0.4859
1.3412,0.4858
1.3414,0.4858
1.3416,0.4858
1.3419,0.4859
1.3422,0.4859
1.3425,0.4861
1.3429,0.4862
1.3434,0.4865
1.3439,0.4868
1.3445,0.487
1.3449,0.4872
1.3452,0.4872
1.3454,0.4872
1.3456,0.4871
1.3458,0.4871
1.346,0.4871
1.3463,0.4872
1.3466,0.4873
1.347,0.4874
1.3473,0.4875
1.3477,0.4876
1.3481,0.4877
1.3484,0.4879
1.3487,0.4879
1.349,0.4879
1.3494,0.4881
1.3497,0.4882
1.3501,0.4883
1.3505,0.4884
1.3509,0.4886
1.3514,0.4888
1.3518,0.4889
1.3521,0.4889
1.3524,0.4888
1.3526,0.4887
1.3528,0.4884
1.353,0.488
1.3532,0.4876
1.3535,0.4873
1.3539,0.4872
1.3542,0.4871
1.3547,0.4871
1.3552,0.4872
1.3557,0.4875
1.3562,0.4877
1.3566,0.4877
1.3568,0.4875
1.357,0.4874
1.3572,0.4874
1.3574,0.4873
1.3577,0.4873
1.358,0.4873
1.3583,0.4875
1.3587,0.4876
1.359,0.4877
1.3594,0.4878
1.3597,0.4879
1.36,0.4881
1.3604,0.4882
1.3607,0.4884
1.3611,0.4884
1.3614,0.4886
1.3618,0.4888
1.3622,0.489
1.3626,0.4893
1.3631,0.4896
1.3635,0.4897
1.3638,0.4897
1.364,0.4897
1.3641,0.4896
1.3643,0.4895
1.3646,0.4896
1.3649,0.4897
1.3652,0.4898
1.3655,0.49
1.3659,0.4902
1.3664,0.4904
1.367,0.4908
1.3675,0.4911
1.3679,0.4913
1.3682,0.4913
1.3684,0.4913
1.3686,0.4913
1.3688,0.4913
1.369,0.4914
1.3693,0.4915
1.3697,0.4916
1.37,0.4917
1.3703,0.4919
1.3707,0.492
1.371,0.4921
1.3714,0.4922
1.3717,0.4924
1.372,0.4925
1.3724,0.4926
1.3727,0.4928
1.3731,0.4929
1.3734,0.493
1.3739,0.4932
1.3743,0.4934
1.3748,0.4937
1.3751,0.4938
1.3754,0.4938
1.3756,0.4938
1.3757,0.4937
1.376,0.4937
1.3762,0.4938
1.3765,0.4939
1.3769,0.494
1.3773,0.4942
1.3777,0.4945
1.3782,0.4948
1.3788,0.4951
1.3793,0.4954
1.3796,0.4955
1.3798,0.4955
1.38,0.4954
1.3802,0.4953
1.3804,0.4952
1.3807,0.4953
1.381,0.4954
1.3813,0.4956
1.3816,0.4958
1.382,0.4959
1.3824,0.4961
1.3827,0.4962
1.383,0.4963
1.3833,0.4964
1.3837,0.4966
1.384,0.4967
1.3844,0.4968
1.3848,0.4969
1.3852,0.497
1.3856,0.4974
1.3861,0.4976
1.3865,0.4977
1.3867,0.4977
1.3869,0.4978
1.3871,0.4978
1.3873,0.4976
1.3876,0.4976
1.3879,0.4977
1.3882,0.4979
1.3885,0.4981
1.389,0.4983
1.3895,0.4985
1.39,0.4989
1.3905,0.4992
1.3909,0.4993
1.3911,0.4992
1.3913,0.4992
1.3915,0.4992
1.3918,0.4991
1.392,0.4992
1.3923,0.4994
1.3927,0.4995
1.393,0.4996
1.3934,0.4997
1.3937,0.4998
1.3941,0.5
1.3944,0.5001
1.3947,0.5002
1.395,0.5003
1.3954,0.5004
1.3957,0.5005
1.3961,0.5006
1.3965,0.5008
1.397,0.501
1.3974,0.5012
1.3978,0.5014
1.3981,0.5015
1.3984,0.5016
1.3985,0.5015
1.3987,0.5014
1.3989,0.5014
1.3992,0.5015
1.3995,0.5015
1.3998,0.5017
1.4002,0.5019
1.4007,0.5021
1.4013,0.5024
1.4018,0.5027
1.4023,0.5029
1.4026,0.503
1.4028,0.503
1.403,0.5029
1.4032,0.5029
1.4034,0.5029
1.4037,0.503
1.404,0.5031
1.4043,0.5032
1.4047,0.5034
1.4051,0.5036
1.4054,0.5037
1.4057,0.5037
1.4061,0.5038
1.4064,0.5038
1.4067,0.5039
1.407,0.5041
1.4074,0.5043
1.4078,0.5044
1.4082,0.5046
1.4087,0.5048
1.4091,0.5051
1.4095,0.5052
1.4097,0.5052
1.4099,0.5052
1.4101,0.5051
1.4103,0.5051
1.4106,0.5052
1.4109,0.5052
1.4112,0.5053
1.4116,0.5056
1.412,0.5057
1.4125,0.506
1.413,0.5062
1.4136,0.5066
1.4139,0.5067
1.4142,0.5067
1.4143,0.5066
1.4145,0.5065
1.4148,0.5066
1.415,0.5067
1.4153,0.5067
1.4157,0.5069
1.416,0.507
1.4163,0.507
1.4167,0.5072
1.417,0.5073
1.4174,0.5074
1.4177,0.5075
1.418,0.5076
1.4184,0.5076
1.4187,0.5077
1.4191,0.5079
1.4195,0.5081
1.4199,0.5083
1.4204,0.5085
1.4208,0.5088
1.4211,0.5089
1.4213,0.5089
1.4215,0.5088
1.4217,0.5088
1.4219,0.5089
1.4222,0.5089
1.4225,0.5088
1.4229,0.509
1.4233,0.5092
1.4237,0.5094
1.4243,0.5097
1.4248,0.5101
1.4252,0.5103
1.4255,0.5103
1.4257,0.5103
1.4259,0.5102
1.4261,0.5101
1.4264,0.5101
1.4267,0.5102
1.427,0.5103
1.4273,0.5104
1.4277,0.5106
1.428,0.5108
1.4284,0.5109
1.4287,0.511
1.429,0.5111
1.4293,0.5111
1.4297,0.5112
1.43,0.5114
1.4304,0.5115
1.4308,0.5117
1.4312,0.5119
1.4316,0.5122
1.4321,0.5123
1.4324,0.5123
1.4327,0.5123
1.4329,0.5123
1.4331,0.5124
1.4333,0.5124
1.4336,0.5124
1.4339,0.5125
1.4342,0.5126
1.4346,0.5127
1.435,0.5129
1.4356,0.5132
1.4361,0.5135
1.4365,0.5138
1.4369,0.5139
1.4371,0.5139
1.4373,0.5138
1.4375,0.5137
1.4377,0.5137
1.438,0.5138
1.4383,0.5139
1.4387,0.514
1.439,0.5141
1.4394,0.5144
1.4397,0.5145
1.4401,0.5145
1.4404,0.5145
1.4407,0.5146
1.441,0.5147
1.4413,0.5148
1.4417,0.5149
1.4421,0.5151
1.4425,0.5153
1.443,0.5155
1.4434,0.5158
1.4438,0.516
1.4441,0.5161
1.4443,0.516
1.4445,0.5159
1.4447,0.5159
1.4449,0.5158
1.4452,0.5158
1.4455,0.516
1.4459,0.5162
1.4463,0.5164
1.4468,0.5167
1.4474,0.517
1.4479,0.5172
1.4482,0.5173
1.4485,0.5172
1.4487,0.5172
1.4489,0.5172
1.4491,0.5173
1.4494,0.5173
1.4497,0.5174
1.45,0.5174
1.4503,0.5175
1.4507,0.5176
1.451,0.5179
1.4514,0.518
1.4517,0.5181
1.452,0.5181
1.4524,0.5182
1.4527,0.5184
1.453,0.5184
1.4534,0.5185
1.4538,0.5186
1.4543,0.5188
1.4547,0.5191
1.4552,0.5192
1.4555,0.5194
1.4557,0.5195
1.4559,0.5195
1.4561,0.5193
1.4563,0.5194
1.4566,0.5195
1.4569,0.5196
1.4572,0.5196
1.4576,0.5197
1.4581,0.5201
1.4586,0.5204
1.4592,0.5207
1.4596,0.5208
1.4599,0.5209
1.4601,0.5209
1.4602,0.5208
1.4605,0.5208
1.4607,0.5207
1.461,0.5207
1.4613,0.5208
1.4617,0.5209
1.462,0.5211
1.4624,0.5213
1.4627,0.5215
1.4631,0.5215
1.4634,0.5216
1.4637,0.5217
1.464,0.5218
1.4644,0.5219
1.4647,0.5221
1.4651,0.5223
1.4656,0.5224
1.466,0.5226
1.4664,0.5228
1.4668,0.5229
1.4671,0.5229
1.4673,0.5229
1.4675,0.5229
1.4677,0.5229
1.4679,0.5229
1.4682,0.5229
1.4685,0.523
1.4689,0.5231
1.4693,0.5234
1.4698,0.5237
1.4704,0.524
1.4709,0.5242
1.4712,0.5243
1.4715,0.5244
1.4717,0.5243
1.4719,0.5242
1.4721,0.5243
1.4724,0.5244
1.4727,0.5245
1.473,0.5246
1.4733,0.5247
1.4737,0.5247
1.474,0.5248
1.4744,0.525
1.4747,0.5251
1.475,0.5251
1.4753,0.5251
1.4757,0.5252
1.4761,0.5255
1.4764,0.5257
1.4768,0.5258
1.4773,0.526
1.4778,0.5262
1.4782,0.5265
1.4785,0.5265
1.4787,0.5264
1.4788,0.5263
1.479,0.5263
1.4793,0.5264
1.4795,0.5264
1.4798,0.5265
1.4802,0.5267
1.4806,0.5268
1.4811,0.527
1.4816,0.5273
1.4822,0.5276
1.4826,0.5277
1.4829,0.5278
1.4831,0.5278
1.4833,0.5277
1.4835,0.5277
1.4837,0.5278
1.484,0.5278
1.4843,0.5279
1.4847,0.5281
1.485,0.5281
1.4854,0.5283
1.4857,0.5284
1.4861,0.5285
1.4864,0.5285
1.4867,0.5286
1.487,0.5286
1.4874,0.5288
1.4877,0.529
1.4881,0.5292
1.4886,0.5294
1.489,0.5295
1.4894,0.5298
1.4898,0.5299
1.49,0.5299
1.4902,0.5299
1.4904,0.5299
1.4907,0.5299
1.4909,0.5298
1.4912,0.5299
1.4915,0.53
1.4919,0.5301
1.4923,0.5303
1.4928,0.5306
1.4934,0.531
1.4939,0.5313
1.4942,0.5313
1.4945,0.5312
1.4946,0.5312
1.4948,0.5311
1.4951,0.531
1.4954,0.5311
1.4957,0.5313
1.496,0.5313
1.4963,0.5314
1.4967,0.5316
1.497,0.5317
1.4974,0.5318
1.4977,0.5319
1.498,0.532
1.4983,0.5322
1.4987,0.5323
1.4991,0.5324
1.4994,0.5325
1.4999,0.5327
1.5003,0.533
1.5007,0.5331
1.5011,0.5332
1.5014,0.5332
1.5016,0.5332
1.5018,0.5333
1.502,0.5332
1.5023,0.5332
1.5025,0.5333
1.5029,0.5334
1.5032,0.5335
1.5036,0.5336
1.5041,0.5339
1.5046,0.5343
1.5052,0.5346
1.5056,0.5348
1.5059,0.5348
1.5061,0.5348
1.5062,0.5346
1.5065,0.5345
1.5067,0.5346
1.507,0.5347
1.5073,0.5348
1.5076,0.535
1.508,0.5351
1.5084,0.5352
1.5087,0.5353
1.509,0.5355
1.5094,0.5355
1.5097,0.5355
1.51,0.5356
1.5104,0.5357
1.5108,0.5359
1.5112,0.536
1.5116,0.5362
1.512,0.5364
1.5124,0.5367
1.5128,0.5368
1.513,0.5367
1.5132,0.5368
1.5134,0.5367
1.5136,0.5367
1.5139,0.5367
1.5142,0.5368
1.5145,0.5369
1.5149,0.537
1.5154,0.5373
1.5159,0.5376
1.5164,0.5379
1.5169,0.538
1.5172,0.5382
1.5175,0.5382
1.5176,0.5381
1.5178,0.5382
1.5181,0.5382
1.5184,0.5382
1.5187,0.5382
1.519,0.5384
1.5193,0.5385
1.5197,0.5385
1.52,0.5387
1.5204,0.5388
1.5207,0.5388
1.521,0.539
1.5213,0.5392
1.5217,0.5392
1.5221,0.5394
1.5224,0.5395
1.5229,0.5397
1.5233,0.5399
1.5238,0.5401
1.5242,0.5403
1.5244,0.5403
1.5246,0.5403
1.5248,0.5402
1.525,0.5401
1.5253,0.5401
1.5255,0.5402
1.5258,0.5402
1.5262,0.5403
1.5266,0.5405
1.5271,0.5409
1.5276,0.5412
1.5282,0.5416
1.5286,0.5417
1.5289,0.5417
1.5291,0.5416
1.5293,0.5416
1.5295,0.5417
1.5298,0.5417
1.53,0.5416
1.5304,0.5417
1.5307,0.5419
1.531,0.5421
1.5314,0.5421
1.5317,0.5422
1.5321,0.5424
1.5324,0.5425
1.5327,0.5425
1.533,0.5427
1.5334,0.5428
1.5338,0.5429
1.5342,0.543
1.5346,0.5432
1.5351,0.5435
1.5355,0.5436
1.5358,0.5437
1.536,0.5437
1.5362,0.5436
1.5364,0.5436
1.5366,0.5436
1.5369,0.5435
1.5372,0.5435
1.5375,0.5436
1.5379,0.5438
1.5383,0.5442
1.5389,0.5445
1.5394,0.5448
1.5399,0.5451
1.5402,0.5451
1.5405,0.5452
1.5407,0.5451
1.5409,0.545
1.5411,0.545
1.5414,0.5451
1.5417,0.5452
1.542,0.5453
1.5424,0.5455
1.5427,0.5456
1.543,0.5456
1.5433,0.5456
1.5437,0.5457
1.544,0.5458
1.5443,0.5459
1.5447,0.546
1.545,0.5462
1.5454,0.5463
1.5459,0.5466
1.5463,0.5468
1.5468,0.5469
1.5471,0.547
1.5474,0.547
1.5476,0.5471
1.5478,0.5471
1.548,0.5471
1.5483,0.5471
1.5485,0.5471
1.5488,0.5471
1.5492,0.5473
1.5496,0.5475
1.5501,0.5478
1.5506,0.5481
1.5512,0.5484
1.5516,0.5485
1.5519,0.5486
1.552,0.5485
1.5522,0.5484
1.5524,0.5485
1.5527,0.5485
1.553,0.5486
1.5533,0.5486
1.5536,0.5487
1.554,0.5489
1.5543,0.549
1.5547,0.5491
1.555,0.5492
1.5553,0.5493
1.5557,0.5494
1.556,0.5496
1.5564,0.5496
1.5567,0.5498
1.5571,0.5499
1.5575,0.55
1.558,0.5503
1.5585,0.5505
1.5588,0.5507
1.559,0.5507
1.5592,0.5505
1.5594,0.5505
1.5596,0.5506
1.5599,0.5506
1.5602,0.5506
1.5605,0.5507
1.5609,0.5509
1.5614,0.5511
1.5619,0.5514
1.5624,0.5517
1.5629,0.5518
1.5632,0.5519
1.5634,0.552
1.5636,0.5518
1.5638,0.5518
1.5641,0.5519
1.5643,0.552
1.5646,0.552
1.565,0.5521
1.5653,0.5522
1.5657,0.5523
1.566,0.5524
1.5664,0.5525
1.5667,0.5527
1.567,0.5528
1.5674,0.5529
1.5677,0.553
1.5681,0.5531
1.5685,0.5533
1.5689,0.5534
1.5693,0.5536
1.5698,0.5538
1.5701,0.5539
1.5704,0.554
1.5706,0.5539
1.5708,0.5539
1.571,0.5538
1.5713,0.5538
1.5715,0.5538
1.5718,0.5539
1.5722,0.5541
1.5726,0.5543
1.5731,0.5547
1.5737,0.555
1.5742,0.5553
1.5746,0.5554
1.5748,0.5554
1.575,0.5554
1.5752,0.5553
1.5755,0.5553
1.5757,0.5553
1.576,0.5554
1.5763,0.5555
1.5767,0.5556
1.577,0.5557
1.5774,0.5558
1.5777,0.5559
1.5781,0.5561
1.5784,0.5562
1.5787,0.5563
1.5791,0.5563
1.5794,0.5564
1.5798,0.5565
1.5801,0.5567
1.5806,0.5569
1.581,0.5571
1.5815,0.5573
1.5818,0.5575
1.582,0.5574
1.5822,0.5573
1.5824,0.5572
1.5826,0.5573
1.5829,0.5573
1.5832,0.5574
1.5835,0.5575
1.5839,0.5576
1.5844,0.5579
1.5849,0.5582
1.5854,0.5585
1.5859,0.5588
1.5862,0.5587
1.5865,0.5586
1.5866,0.5586
1.5868,0.5585
1.5871,0.5586
1.5874,0.5586
1.5876,0.5587
1.588,0.5588
1.5883,0.559
1.5887,0.5592
1.5891,0.5593
1.5894,0.5594
1.5897,0.5595
1.59,0.5596
1.5904,0.5597
1.5907,0.5597
1.5911,0.5598
1.5915,0.5601
1.5919,0.5603
1.5923,0.5606
1.5928,0.5607
1.5931,0.5608
1.5934,0.5608
1.5936,0.5607
1.5938,0.5607
1.594,0.5606
1.5943,0.5607
1.5945,0.5607
1.5949,0.5608
1.5952,0.561
1.5957,0.5612
1.5962,0.5615
1.5967,0.5618
1.5972,0.5621
1.5976,0.5622
1.5978,0.5621
1.598,0.562
1.5982,0.5621
1.5984,0.5621
1.5987,0.5621
1.599,0.5622
1.5993,0.5622
1.5996,0.5623
1.6,0.5624
1.6003,0.5626
1.6007,0.5628
1.601,0.5629
1.6014,0.5629
1.6017,0.563
1.602,0.5631
1.6024,0.5632
1.6028,0.5633
1.6032,0.5635
1.6036,0.5637
1.6041,0.564
1.6045,0.5641
1.6048,0.5642
1.605,0.5642
1.6052,0.5641
1.6054,0.5641
1.6056,0.5641
1.6059,0.5641
1.6062,0.5642
1.6065,0.5644
1.6069,0.5645
1.6074,0.5647
1.6079,0.565
1.6084,0.5654
1.6089,0.5655
1.6092,0.5655
1.6094,0.5654
1.6096,0.5654
1.6098,0.5654
1.61,0.5655
1.6103,0.5656
1.6106,0.5657
1.611,0.5657
1.6113,0.5658
1.6117,0.5659
1.612,0.566
1.6124,0.5661
1.6127,0.5663
1.613,0.5665
1.6134,0.5665
1.6137,0.5666
1.6141,0.5667
1.6144,0.5667
1.6149,0.5669
1.6153,0.5672
1.6158,0.5674
1.6161,0.5675
1.6164,0.5675
1.6166,0.5674
1.6168,0.5674
1.617,0.5674
1.6172,0.5674
1.6175,0.5675
1.6178,0.5676
1.6182,0.5677
1.6186,0.5679
1.6192,0.5682
1.6197,0.5685
1.6202,0.5687
1.6206,0.5689
1.6208,0.5689
1.621,0.5689
1.6212,0.5687
1.6214,0.5688
1.6217,0.5688
1.622,0.5689
1.6223,0.569
1.6227,0.5691
1.623,0.5692
1.6234,0.5693
1.6237,0.5694
1.624,0.5696
1.6243,0.5697
1.6247,0.5697
1.625,0.5698
1.6254,0.57
1.6258,0.5702
1.6262,0.5703
1.6266,0.5705
1.6271,0.5708
1.6275,0.571
1.6278,0.571
1.628,0.5709
1.6281,0.5708
1.6284,0.5707
1.6286,0.5708
1.6289,0.5709
1.6292,0.571
1.6295,0.571
1.63,0.5712
1.6305,0.5716
1.631,0.5718
1.6315,0.5721
1.6319,0.5722
1.6322,0.5722
1.6324,0.5721
1.6326,0.572
1.6328,0.572
1.633,0.5721
1.6333,0.5723
1.6337,0.5723
1.634,0.5723
1.6344,0.5725
1.6347,0.5727
1.6351,0.5728
1.6354,0.5729
1.6357,0.5729
1.636,0.573
1.6364,0.5731
1.6367,0.5733
1.6371,0.5734
1.6375,0.5736
1.6379,0.5737
1.6384,0.5738
1.6388,0.5741
1.6392,0.5743
1.6394,0.5743
1.6396,0.5742
1.6398,0.5741
1.64,0.5741
1.6402,0.5741
1.6405,0.5743
1.6408,0.5744
1.6412,0.5745
1.6417,0.5747
1.6422,0.575
1.6428,0.5753
1.6432,0.5755
1.6436,0.5756
1.6438,0.5755
1.644,0.5755
1.6442,0.5754
1.6444,0.5755
1.6447,0.5755
1.645,0.5756
1.6453,0.5757
1.6457,0.5759
1.646,0.5761
1.6464,0.5761
1.6467,0.5762
1.6471,0.5763
1.6474,0.5763
1.6477,0.5764
1.648,0.5765
1.6484,0.5767
1.6488,0.5768
1.6492,0.577
1.6496,0.5772
1.6501,0.5774
1.6505,0.5775
1.6508,0.5775
1.651,0.5775
1.6511,0.5775
1.6513,0.5775
1.6516,0.5776
1.6519,0.5775
1.6522,0.5776
1.6525,0.5777
1.653,0.5779
1.6534,0.5782
1.654,0.5785
1.6545,0.5787
1.6549,0.5788
1.6552,0.5789
1.6554,0.5789
1.6556,0.5789
1.6558,0.5789
1.656,0.5789
1.6563,0.579
1.6567,0.5791
1.657,0.5791
1.6574,0.5792
1.6577,0.5793
1.658,0.5794
1.6584,0.5795
1.6587,0.5797
1.659,0.5797
1.6594,0.5797
1.6597,0.5798
1.6601,0.5799
1.6605,0.5801
1.6609,0.5803
1.6614,0.5806
1.6618,0.5808
1.6621,0.5808
1.6624,0.5808
1.6625,0.5807
1.6627,0.5807
1.663,0.5807
1.6632,0.5807
1.6635,0.5808
1.6639,0.581
1.6642,0.5812
1.6647,0.5813
1.6652,0.5816
1.6658,0.5819
1.6662,0.5822
1.6666,0.5823
1.6668,0.5821
1.667,0.582
1.6672,0.582
1.6674,0.5821
1.6677,0.5821
1.668,0.5822
1.6683,0.5823
1.6687,0.5824
1.669,0.5825
1.6694,0.5827
1.6697,0.5828
1.67,0.5829
1.6704,0.583
1.6707,0.5831
1.671,0.5831
1.6714,0.5833
1.6718,0.5834
1.6722,0.5836
1.6726,0.5838
1.6731,0.584
1.6734,0.5841
1.6737,0.5841
1.6739,0.5841
1.6741,0.584
1.6743,0.584
1.6746,0.584
1.6749,0.5841
1.6752,0.5842
1.6756,0.5844
1.676,0.5846
1.6765,0.5849
1.677,0.5852
1.6775,0.5854
1.6779,0.5855
1.6781,0.5854
1.6783,0.5853
1.6785,0.5853
1.6788,0.5853
1.679,0.5854
1.6793,0.5854
1.6797,0.5855
1.68,0.5856
1.6804,0.5858
1.6807,0.5859
1.6811,0.586
1.6814,0.5861
1.6817,0.5862
1.682,0.5863
1.6823,0.5863
1.6827,0.5863
1.6831,0.5865
1.6835,0.5867
1.6839,0.5869
1.6844,0.5871
1.6848,0.5873
1.6851,0.5873
1.6853,0.5874
1.6855,0.5873
1.6857,0.5871
1.6859,0.5871
1.6862,0.5873
1.6865,0.5874
1.6869,0.5875
1.6873,0.5878
1.6878,0.588
1.6883,0.5883
1.6888,0.5885
1.6893,0.5886
1.6895,0.5887
1.6897,0.5887
1.6899,0.5887
1.6901,0.5886
1.6904,0.5886
1.6907,0.5887
1.691,0.5889
1.6914,0.5889
1.6917,0.5889
1.692,0.5891
1.6924,0.5892
1.6927,0.5893
1.693,0.5893
1.6933,0.5894
1.6937,0.5895
1.694,0.5897
1.6944,0.5898
1.6948,0.59
1.6952,0.5902
1.6957,0.5904
1.6961,0.5906
1.6965,0.5907
1.6967,0.5907
1.6969,0.5906
1.6971,0.5906
1.6973,0.5906
1.6976,0.5906
1.6979,0.5907
1.6982,0.5908
1.6986,0.5909
1.699,0.5911
1.6996,0.5914
1.7001,0.5917
1.7006,0.5919
1.7009,0.592
1.7011,0.592
1.7013,0.592
1.7015,0.5919
1.7017,0.5918
1.702,0.5919
1.7023,0.592
1.7027,0.5921
1.703,0.5922
1.7034,0.5923
1.7037,0.5925
1.7041,0.5925
1.7044,0.5927
1.7047,0.5928
1.705,0.5928
1.7054,0.5929
1.7057,0.593
1.7061,0.5932
1.7065,0.5933
1.707,0.5935
1.7074,0.5938
1.7078,0.594
1.7081,0.594
1.7083,0.594
1.7085,0.5939
1.7087,0.5938
1.7089,0.5937
1.7092,0.5937
1.7095,0.5938
1.7099,0.594
1.7103,0.5943
1.7108,0.5946
1.7113,0.5948
1.7119,0.595
1.7122,0.5951
1.7125,0.5952
1.7127,0.5952
1.7129,0.5951
1.7131,0.5951
1.7134,0.5951
1.7137,0.5951
1.714,0.5952
1.7143,0.5954
1.7147,0.5956
1.7151,0.5957
1.7154,0.5958
1.7157,0.5959
1.716,0.596
1.7164,0.5961
1.7167,0.5962
1.7171,0.5963
1.7174,0.5964
1.7178,0.5965
1.7183,0.5967
1.7187,0.5969
1.7192,0.5972
1.7195,0.5972
1.7197,0.5971
1.7199,0.597
1.7201,0.597
1.7203,0.597
1.7205,0.597
1.7208,0.5971
1.7212,0.5972
1.7216,0.5974
1.722,0.5977
1.7226,0.5979
1.7231,0.5982
1.7236,0.5984
1.7239,0.5985
1.7241,0.5984
1.7243,0.5983
1.7245,0.5983
1.7247,0.5983
1.725,0.5984
1.7253,0.5985
1.7257,0.5986
1.726,0.5986
1.7264,0.5987
1.7267,0.5989
1.7271,0.599
1.7274,0.5991
1.7277,0.5992
1.728,0.5992
1.7283,0.5994
1.7287,0.5995
1.7291,0.5996
1.7295,0.5998
1.73,0.6
1.7304,0.6002
1.7308,0.6003
1.7311,0.6003
1.7313,0.6003
1.7315,0.6003
1.7317,0.6003
1.7319,0.6002
1.7322,0.6003
1.7325,0.6004
1.7329,0.6005
1.7333,0.6006
1.7338,0.601
1.7343,0.6013
1.7349,0.6015
1.7352,0.6016
1.7355,0.6016
1.7357,0.6015
1.7359,0.6015
1.7361,0.6016
1.7364,0.6017
1.7367,0.6017
1.737,0.6018
1.7373,0.6019
1.7377,0.6021
1.738,0.6021
1.7384,0.6022
1.7387,0.6023
1.739,0.6024
1.7393,0.6025
1.7397,0.6025
1.74,0.6026
1.7404,0.6028
1.7408,0.6031
1.7413,0.6033
1.7417,0.6033
1.7421,0.6035
1.7424,0.6035
1.7427,0.6035
1.7428,0.6035
1.743,0.6035
1.7433,0.6035
1.7436,0.6035
1.7439,0.6036
1.7442,0.6037
1.7446,0.6038
1.745,0.604
1.7456,0.6043
1.7461,0.6046
1.7466,0.6048
1.7469,0.6048
1.7471,0.6049
1.7473,0.6049
1.7475,0.6049
1.7477,0.6049
1.748,0.6047
1.7483,0.6047
1.7487,0.605
1.749,0.6052
1.7494,0.6054
1.7497,0.6054
1.7501,0.6054
1.7504,0.6054
1.7507,0.6056
1.751,0.6056
1.7514,0.6058
1.7518,0.6059
1.7521,0.6061
1.7526,0.6063
1.753,0.6065
1.7534,0.6067
1.7538,0.6067
1.7541,0.6068
1.7543,0.6068
1.7544,0.6068
1.7547,0.6067
1.7549,0.6068
1.7552,0.6069
1.7555,0.6069
1.7559,0.607
1.7563,0.6072
1.7568,0.6075
1.7574,0.6077
1.7579,0.608
1.7583,0.6082
1.7585,0.6082
1.7587,0.6081
1.7589,0.6081
1.7591,0.6081
1.7594,0.6081
1.7597,0.6081
1.76,0.6081
1.7603,0.6083
1.7607,0.6085
1.761,0.6086
1.7614,0.6087
1.7617,0.6087
1.762,0.6087
1.7624,0.6088
1.7627,0.6089
1.7631,0.6091
1.7634,0.6092
1.7639,0.6095
1.7643,0.6097
1.7648,0.6098
1.7652,0.61
1.7655,0.6101
1.7657,0.61
1.7658,0.61
1.766,0.61
1.7663,0.6099
1.7665,0.6099
1.7668,0.61
1.7672,0.6101
1.7676,0.6103
1.768,0.6105
1.7686,0.6107
1.7691,0.6111
1.7696,0.6114
1.7699,0.6114
1.7701,0.6113
1.7703,0.6112
1.7705,0.6112
1.7708,0.6113
1.771,0.6114
1.7713,0.6114
1.7717,0.6115
1.772,0.6117
1.7724,0.6118
1.7727,0.6118
1.773,0.6119
1.7734,0.612
1.7737,0.612
1.774,0.6122
1.7744,0.6123
1.7747,0.6124
1.7751,0.6126
1.7756,0.6128
1.776,0.6129
1.7764,0.613
1.7768,0.6132
1.777,0.6132
1.7773,0.6132
1.7775,0.6132
1.7777,0.6132
1.7779,0.6131
1.7782,0.6132
1.7785,0.6134
1.7789,0.6135
1.7793,0.6137
1.7798,0.6139
1.7804,0.6142
1.7809,0.6144
1.7812,0.6145
1.7815,0.6144
1.7817,0.6144
1.7819,0.6144
1.7821,0.6144
1.7824,0.6144
1.7827,0.6145
1.783,0.6146
1.7833,0.6147
1.7837,0.6148
1.784,0.615
1.7844,0.615
1.7847,0.6151
1.785,0.6152
1.7853,0.6154
1.7857,0.6155
1.786,0.6155
1.7864,0.6156
1.7868,0.6157
1.7873,0.6159
1.7877,0.6161
1.7881,0.6164
1.7884,0.6165
1.7886,0.6164
1.7888,0.6164
1.789,0.6163
1.7893,0.6163
1.7895,0.6164
1.7898,0.6165
1.7902,0.6166
1.7906,0.6168
1.7911,0.6168
1.7916,0.6171
1.7921,0.6174
1.7926,0.6177
1.7928,0.6177
1.7931,0.6176
1.7933,0.6176
1.7935,0.6175
1.7937,0.6176
1.794,0.6177
1.7943,0.6178
1.7946,0.6177
1.795,0.6178
1.7954,0.6181
1.7957,0.6182
1.7961,0.6183
1.7964,0.6184
1.7967,0.6184
1.797,0.6185
1.7974,0.6187
1.7977,0.6187
1.7981,0.6188
1.7985,0.619
1.799,0.6193
1.7994,0.6195
1.7998,0.6196
1.8001,0.6196
1.8003,0.6196
1.8004,0.6195
1.8007,0.6195
1.8009,0.6195
1.8012,0.6195
1.8015,0.6196
1.8019,0.6199
1.8023,0.62
1.8028,0.6202
1.8034,0.6205
1.8039,0.6208
1.8042,0.6209
1.8045,0.6209
1.8047,0.6207
1.8049,0.6207
1.8051,0.6208
1.8054,0.6208
1.8057,0.6208
1.806,0.6209
1.8063,0.6209
1.8067,0.6209
1.807,0.6212
1.8074,0.6214
1.8077,0.6215
1.808,0.6216
1.8084,0.6216
1.8087,0.6218
1.809,0.622
1.8094,0.6221
1.8098,0.6222
1.8103,0.6224
1.8107,0.6226
1.8111,0.6227
1.8114,0.6228
1.8117,0.6227
1.8118,0.6227
1.812,0.6226
1.8123,0.6226
1.8125,0.6227
1.8128,0.6227
1.8132,0.6228
1.8136,0.623
1.8141,0.6233
1.8146,0.6236
1.8152,0.6238
1.8156,0.624
1.8159,0.624
1.8161,0.6238
1.8163,0.6238
1.8165,0.6239
1.8167,0.624
1.817,0.6239
1.8173,0.624
1.8177,0.6242
1.818,0.6243
1.8184,0.6244
1.8187,0.6245
1.819,0.6246
1.8194,0.6247
1.8197,0.6248
1.82,0.6249
1.8204,0.625
1.8207,0.625
1.8211,0.6252
1.8216,0.6253
1.822,0.6256
1.8225,0.6259
1.8228,0.626
1.8231,0.6259
1.8232,0.6258
1.8234,0.6257
1.8236,0.6257
1.8239,0.6258
1.8242,0.6258
1.8245,0.626
1.8249,0.6262
1.8254,0.6264
1.8259,0.6266
1.8264,0.6269
1.8269,0.6271
1.8272,0.6271
1.8275,0.6271
1.8277,0.627
1.8278,0.627
1.8281,0.627
1.8283,0.627
1.8286,0.627
1.829,0.6271
1.8293,0.6273
1.8297,0.6274
1.8301,0.6275
1.8304,0.6276
1.8307,0.6278
1.8311,0.6279
1.8314,0.628
1.8317,0.628
1.8321,0.6281
1.8325,0.6282
1.8329,0.6283
1.8333,0.6286
1.8337,0.6287
1.8341,0.6289
1.8344,0.6289
1.8346,0.6288
1.8348,0.6288
1.835,0.6288
1.8353,0.6288
1.8355,0.6289
1.8359,0.629
1.8362,0.629
1.8366,0.6293
1.8371,0.6295
1.8376,0.6299
1.8382,0.6301
1.8386,0.6301
1.8388,0.6302
1.839,0.6302
1.8392,0.6301
1.8395,0.6301
1.8397,0.6301
1.84,0.6302
1.8403,0.6303
1.8407,0.6304
1.841,0.6305
1.8414,0.6305
1.8417,0.6306
1.842,0.6307
1.8424,0.6308
1.8427,0.6309
1.843,0.631
1.8434,0.6311
1.8438,0.6312
1.8442,0.6314
1.8446,0.6316
1.845,0.6318
1.8455,0.6319
1.8458,0.632
1.846,0.632
1.8462,0.6319
1.8464,0.6318
1.8466,0.6318
1.8469,0.6319
1.8472,0.632
1.8475,0.6322
1.8479,0.6324
1.8484,0.6326
1.8489,0.6327
1.8494,0.633
1.8499,0.6333
1.8502,0.6333
1.8504,0.6332
1.8506,0.6332
1.8508,0.6332
1.8511,0.6332
1.8514,0.6333
1.8517,0.6333
1.852,0.6334
1.8523,0.6335
1.8527,0.6335
1.853,0.6335
1.8534,0.6337
1.8537,0.6339
1.854,0.634
1.8544,0.6342
1.8547,0.6343
1.8551,0.6343
1.8554,0.6343
1.8558,0.6345
1.8563,0.6348
1.8567,0.635
1.8571,0.6351
1.8574,0.635
1.8576,0.6349
1.8578,0.635
1.858,0.6351
1.8582,0.6351
1.8585,0.6351
1.8588,0.6352
1.8592,0.6353
1.8596,0.6355
1.8601,0.6358
1.8607,0.636
1.8612,0.6362
1.8616,0.6363
1.8618,0.6364
1.862,0.6364
1.8622,0.6363
1.8624,0.6363
1.8627,0.6362
1.863,0.6362
1.8633,0.6364
1.8636,0.6364
1.864,0.6366
1.8644,0.6367
1.8647,0.6368
1.865,0.637
1.8654,0.6371
1.8657,0.6371
1.866,0.6372
1.8664,0.6373
1.8667,0.6374
1.8671,0.6375
1.8676,0.6378
1.8681,0.638
1.8685,0.6382
1.8688,0.6382
1.869,0.6381
1.8692,0.638
1.8694,0.638
1.8696,0.638
1.8699,0.6381
1.8702,0.6382
1.8705,0.6383
1.8709,0.6385
1.8714,0.6387
1.8719,0.6389
1.8725,0.6393
1.8729,0.6394
1.8732,0.6395
1.8734,0.6394
1.8736,0.6394
1.8738,0.6394
1.874,0.6393
1.8743,0.6393
1.8746,0.6394
1.875,0.6395
1.8754,0.6396
1.8757,0.6397
1.8761,0.6398
1.8764,0.64
1.8767,0.6401
1.877,0.6401
1.8774,0.6401
1.8777,0.6402
1.8781,0.6403
1.8785,0.6405
1.8789,0.6407
1.8793,0.6409
1.8798,0.6411
1.8802,0.6411
1.8804,0.6412
1.8806,0.6411
1.8808,0.6411
1.881,0.6411
1.8812,0.6411
1.8815,0.641
1.8818,0.6411
1.8822,0.6413
1.8827,0.6414
1.8832,0.6418
1.8837,0.6421
1.8842,0.6423
1.8846,0.6425
1.8848,0.6425
1.885,0.6423
1.8852,0.6422
1.8854,0.6423
1.8857,0.6423
1.886,0.6423
1.8863,0.6424
1.8867,0.6424
1.8871,0.6426
1.8874,0.6427
1.8878,0.6428
1.8881,0.643
1.8884,0.6431
1.8887,0.6432
1.889,0.6432
1.8894,0.6434
1.8898,0.6435
1.8902,0.6435
1.8906,0.6437
1.8911,0.644
1.8915,0.6441
1.8918,0.6442
1.892,0.6442
1.8922,0.6441
1.8924,0.644
1.8926,0.644
1.8929,0.644
1.8932,0.6441
1.8935,0.6442
1.8939,0.6444
1.8944,0.6447
1.895,0.6449
1.8955,0.6452
1.8959,0.6453
1.8962,0.6453
1.8964,0.6453
1.8966,0.6453
1.8968,0.6452
1.8971,0.6453
1.8974,0.6453
1.8977,0.6453
1.898,0.6455
1.8984,0.6456
1.8987,0.6457
1.899,0.6457
1.8994,0.6458
1.8997,0.6459
1.9,0.646
1.9004,0.6461
1.9007,0.6462
1.9011,0.6463
1.9015,0.6464
1.9019,0.6465
1.9024,0.6468
1.9028,0.647
1.9031,0.6471
1.9034,0.647
1.9036,0.6469
1.9038,0.6469
1.904,0.6469
1.9042,0.6469
1.9045,0.6471
1.9048,0.6471
1.9052,0.6471
1.9057,0.6473
1.9062,0.6475
1.9067,0.6479
1.9072,0.6481
1.9076,0.6482
1.9078,0.6482
1.908,0.6481
1.9082,0.648
1.9084,0.648
1.9087,0.6481
1.909,0.6482
1.9093,0.6482
1.9097,0.6483
1.91,0.6483
1.9104,0.6483
1.9107,0.6484
1.911,0.6485
1.9113,0.6485
1.9117,0.6486
1.912,0.6487
1.9124,0.6487
1.9128,0.6488
1.9132,0.6489
1.9136,0.6491
1.9141,0.6492
1.9144,0.6493
1.9147,0.6492
1.9149,0.6491
1.9151,0.649
1.9153,0.6489
1.9156,0.649
1.9159,0.649
1.9162,0.649
1.9165,0.6491
1.917,0.6494
1.9174,0.6496
1.918,0.6498
1.9185,0.6499
1.9189,0.65
1.9191,0.65
1.9193,0.6499
1.9195,0.6497
1.9198,0.6497
1.92,0.6498
1.9203,0.6498
1.9207,0.6499
1.921,0.6499
1.9214,0.6501
1.9217,0.6502
1.9221,0.6502
1.9224,0.6502
1.9227,0.6502
1.923,0.6502
1.9233,0.6503
1.9237,0.6504
1.9241,0.6505
1.9245,0.6506
1.9249,0.6507
1.9254,0.6509
1.9258,0.651
1.9261,0.651
1.9264,0.6509
1.9265,0.6508
1.9267,0.6508
1.9269,0.6506
1.9272,0.6506
1.9275,0.6507
1.9279,0.6508
1.9283,0.651
1.9288,0.6512
1.9293,0.6514
1.9298,0.6516
1.9302,0.6518
1.9305,0.6518
1.9307,0.6516
1.9309,0.6515
1.9311,0.6515
1.9314,0.6515
1.9317,0.6515
1.932,0.6514
1.9323,0.6516
1.9327,0.6517
1.9331,0.6517
1.9334,0.6518
1.9337,0.652
1.9341,0.652
1.9344,0.6521
1.9347,0.6522
1.935,0.6522
1.9354,0.6523
1.9358,0.6525
1.9362,0.6526
1.9367,0.6528
1.9371,0.653
1.9375,0.6531
1.9377,0.6532
1.9379,0.653
1.9381,0.6529
1.9383,0.6529
1.9386,0.6529
1.9389,0.653
1.9392,0.653
1.9396,0.6532
1.94,0.6534
1.9405,0.6536
1.9411,0.6539
1.9416,0.6541
1.9419,0.6543
1.9421,0.6543
1.9423,0.6543
1.9425,0.6542
1.9428,0.6541
1.9431,0.6541
1.9434,0.6542
1.9437,0.6543
1.944,0.6544
1.9444,0.6546
1.9447,0.6547
1.9451,0.6548
1.9454,0.6549
1.9457,0.655
1.946,0.6551
1.9464,0.6552
1.9467,0.6551
1.9471,0.6553
1.9475,0.6555
1.948,0.6557
1.9484,0.6559
1.9488,0.656
1.9491,0.6561
1.9493,0.656
1.9495,0.656
1.9497,0.656
1.9499,0.6561
1.9502,0.6561
1.9505,0.6562
1.9509,0.6563
1.9513,0.6564
1.9518,0.6567
1.9523,0.657
1.9528,0.6573
1.9533,0.6575
1.9535,0.6575
1.9537,0.6574
1.9539,0.6572
1.9541,0.6572
1.9544,0.6574
1.9547,0.6575
1.955,0.6575
1.9553,0.6576
1.9557,0.6577
1.956,0.6579
1.9564,0.6579
1.9567,0.658
1.957,0.658
1.9573,0.658
1.9577,0.6582
1.958,0.6583
1.9584,0.6585
1.9588,0.6587
1.9592,0.6588
1.9597,0.6591
1.9602,0.6593
1.9605,0.6593
1.9607,0.6593
1.9609,0.6593
1.9611,0.6592
1.9613,0.6592
1.9616,0.6592
1.9618,0.6592
1.9622,0.6594
1.9625,0.6595
1.963,0.6596
1.9635,0.6599
1.9641,0.6603
1.9645,0.6605
1.9649,0.6606
1.9651,0.6605
1.9653,0.6605
1.9655,0.6605
1.9657,0.6605
1.966,0.6606
1.9663,0.6606
1.9666,0.6607
1.967,0.6608
1.9673,0.6609
1.9677,0.661
1.9681,0.6611
1.9684,0.6613
1.9687,0.6613
1.969,0.6614
1.9694,0.6615
1.9697,0.6615
1.9701,0.6617
1.9705,0.6619
1.971,0.6621
1.9714,0.6622
1.9718,0.6624
1.9721,0.6624
1.9723,0.6624
1.9725,0.6623
1.9727,0.6623
1.9729,0.6623
1.9732,0.6623
1.9735,0.6624
1.9739,0.6625
1.9743,0.6626
1.9748,0.6629
1.9753,0.6631
1.9758,0.6635
1.9762,0.6637
1.9765,0.6637
1.9767,0.6636
1.9769,0.6635
1.9771,0.6635
1.9774,0.6636
1.9777,0.6637
1.978,0.6638
1.9783,0.6638
1.9787,0.6638
1.979,0.664
1.9794,0.6641
1.9797,0.6642
1.98,0.6643
1.9803,0.6644
1.9807,0.6644
1.981,0.6645
1.9814,0.6647
1.9818,0.6649
1.9823,0.665
1.9827,0.6652
1.9831,0.6655
1.9834,0.6655
1.9837,0.6655
1.9839,0.6653
1.9841,0.6653
1.9843,0.6652
1.9846,0.6653
1.9849,0.6654
1.9852,0.6655
1.9856,0.6657
1.986,0.6659
1.9865,0.6662
1.9871,0.6665
1.9876,0.6666
1.9879,0.6667
1.9881,0.6666
1.9883,0.6665
1.9885,0.6665
1.9888,0.6665
1.989,0.6665
1.9893,0.6666
1.9896,0.6667
1.99,0.6669
1.9904,0.6669
1.9907,0.667
1.991,0.6671
1.9914,0.6672
1.9917,0.6673
1.992,0.6674
1.9924,0.6675
1.9927,0.6675
1.9931,0.6677
1.9935,0.6679
1.994,0.6681
1.9944,0.6682
1.9948,0.6683
1.9951,0.6683
1.9953,0.6683
1.9955,0.6683
1.9957,0.6683
1.9959,0.6684
1.9962,0.6684
1.9965,0.6684
1.9969,0.6684
1.9973,0.6686
1.9978,0.6689
1.9983,0.6692
1.9989,0.6695
1.9993,0.6697
1.9995,0.6696
1.9997,0.6694
1.9999,0.6694
2.0001,0.6694
2.0004,0.6695
2.0007,0.6695
2.001,0.6696
2.0013,0.6697
2.0017,0.6698
2.002,0.6699
2.0024,0.6699
2.0027,0.67
2.003,0.6701
2.0033,0.6701
2.0037,0.6702
2.004,0.6704
2.0044,0.6706
2.0048,0.6707
2.0053,0.6709
2.0058,0.6711
2.0062,0.6711
2.0065,0.6712
2.0067,0.6712
2.0069,0.6712
2.0071,0.6711
2.0073,0.6711
2.0075,0.6711
2.0078,0.6712
2.0082,0.6712
2.0086,0.6713
2.009,0.6715
2.0095,0.6718
2.0101,0.6721
2.0106,0.6724
2.0109,0.6725
2.0111,0.6725
2.0113,0.6724
2.0115,0.6724
2.0118,0.6723
2.012,0.6724
2.0123,0.6724
2.0127,0.6724
2.013,0.6726
2.0134,0.6728
2.0137,0.6729
2.0141,0.6728
2.0144,0.6729
2.0147,0.673
2.015,0.6732
2.0154,0.6732
2.0157,0.6734
2.0161,0.6734
2.0165,0.6736
2.017,0.6738
2.0174,0.674
2.0178,0.6741
2.0181,0.674
2.0183,0.674
2.0185,0.674
2.0187,0.6739
2.0189,0.6739
2.0192,0.674
2.0195,0.6741
2.0199,0.6742
2.0203,0.6743
2.0208,0.6747
2.0213,0.6749
2.0219,0.6751
2.0222,0.6752
2.0225,0.6752
2.0227,0.6752
2.0229,0.6752
2.0231,0.6751
2.0234,0.6751
2.0237,0.6751
2.024,0.6752
2.0243,0.6752
2.0247,0.6753
2.025,0.6754
2.0254,0.6754
2.0257,0.6756
2.026,0.6757
2.0263,0.6757
2.0267,0.6758
2.027,0.676
2.0274,0.6761
2.0278,0.6763
2.0283,0.6764
2.0287,0.6766
2.0291,0.6768
2.0294,0.6769
2.0297,0.6768
2.0299,0.6767
2.0301,0.6767
2.0303,0.6767
2.0306,0.6766
2.0309,0.6767
2.0312,0.6768
2.0316,0.677
2.0321,0.6772
2.0326,0.6774
2.0331,0.6777
2.0336,0.6779
2.0339,0.6779
2.0341,0.6779
2.0343,0.6778
2.0345,0.6777
2.0347,0.6777
2.035,0.6777
2.0353,0.6778
2.0356,0.6779
2.036,0.678
2.0364,0.6781
2.0367,0.6782
2.037,0.6783
2.0374,0.6784
2.0377,0.6785
2.038,0.6785
2.0384,0.6786
2.0387,0.6787
2.0391,0.6788
2.0395,0.679
2.04,0.6793
2.0404,0.6794
2.0408,0.6795
2.0411,0.6794
2.0413,0.6794
2.0415,0.6793
2.0417,0.6794
2.0419,0.6793
2.0422,0.6794
2.0425,0.6795
2.0429,0.6796
2.0433,0.6797
2.0438,0.6799
2.0443,0.6802
2.0448,0.6805
2.0452,0.6806
2.0455,0.6806
2.0457,0.6806
2.0459,0.6806
2.0461,0.6806
2.0464,0.6805
2.0467,0.6806
2.047,0.6806
2.0473,0.6806
2.0477,0.6807
2.048,0.6809
2.0484,0.681
2.0487,0.681
2.049,0.6812
2.0494,0.6812
2.0497,0.6813
2.05,0.6814
2.0504,0.6815
2.0508,0.6816
2.0512,0.6817
2.0517,0.6819
2.0521,0.682
2.0524,0.6821
2.0527,0.6821
2.0529,0.682
2.0531,0.6819
2.0533,0.6819
2.0535,0.682
2.0538,0.682
2.0542,0.6822
2.0546,0.6825
2.055,0.6826
2.0556,0.6828
2.0561,0.6831
2.0566,0.6833
2.0569,0.6833
2.0571,0.6833
2.0573,0.6831
2.0575,0.6831
2.0577,0.6831
2.058,0.6831
2.0583,0.6832
2.0587,0.6833
2.059,0.6833
2.0594,0.6834
2.0597,0.6835
2.0601,0.6837
2.0604,0.6838
2.0607,0.6838
2.061,0.6837
2.0614,0.684
2.0617,0.6841
2.0621,0.6842
2.0625,0.6844
2.063,0.6846
2.0634,0.6849
2.0638,0.685
2.0641,0.6849
2.0643,0.6847
2.0645,0.6846
2.0647,0.6846
2.0649,0.6847
2.0652,0.6846
2.0655,0.6847
2.0659,0.6848
2.0663,0.6851
2.0668,0.6853
2.0674,0.6856
2.0679,0.6859
2.0683,0.686
2.0685,0.6859
2.0687,0.6858
2.0689,0.6857
2.0691,0.6857
2.0693,0.6857
2.0696,0.6858
2.07,0.6859
2.0703,0.6859
2.0707,0.6861
2.0711,0.6862
2.0714,0.6863
2.0717,0.6863
2.0721,0.6864
2.0724,0.6865
2.0727,0.6866
2.0731,0.6867
2.0735,0.6868
2.0739,0.6869
2.0743,0.6871
2.0747,0.6872
2.0751,0.6874
2.0754,0.6874
2.0757,0.6874
2.0759,0.6872
2.0761,0.6871
2.0763,0.6872
2.0766,0.6873
2.0769,0.6873
2.0772,0.6874
2.0776,0.6875
2.0781,0.6877
2.0786,0.688
2.0791,0.6883
2.0796,0.6885
2.0799,0.6885
2.0801,0.6884
2.0803,0.6883
2.0805,0.6883
2.0807,0.6883
2.081,0.6883
2.0813,0.6884
2.0816,0.6885
2.082,0.6886
2.0824,0.6886
2.0827,0.6887
2.083,0.6889
2.0834,0.6889
2.0837,0.689
2.084,0.6891
2.0844,0.6892
2.0848,0.6893
2.0851,0.6893
2.0856,0.6894
2.086,0.6897
2.0864,0.6899
2.0868,0.6899
2.087,0.6899
2.0872,0.6899
2.0874,0.6898
2.0876,0.6898
2.0879,0.6898
2.0882,0.6898
2.0885,0.6898
2.0889,0.69
2.0893,0.6903
2.0898,0.6905
2.0903,0.6907
2.0909,0.6909
2.0912,0.691
2.0915,0.6911
2.0917,0.691
2.0919,0.6908
2.0921,0.6908
2.0924,0.6909
2.0927,0.691
2.093,0.6909
2.0933,0.691
2.0937,0.6912
2.094,0.6913
2.0944,0.6914
2.0947,0.6915
2.095,0.6914
2.0954,0.6915
2.0957,0.6915
2.096,0.6916
2.0964,0.6918
2.0968,0.692
2.0972,0.6922
2.0977,0.6924
2.0981,0.6925
2.0984,0.6925
2.0986,0.6925
2.0988,0.6924
2.099,0.6924
2.0993,0.6924
2.0995,0.6925
2.0998,0.6925
2.1002,0.6926
2.1006,0.6928
2.1011,0.693
2.1016,0.6932
2.1022,0.6935
2.1026,0.6936
2.1029,0.6935
2.1031,0.6935
2.1032,0.6934
2.1035,0.6934
2.1037,0.6934
2.104,0.6934
2.1043,0.6936
2.1046,0.6937
2.105,0.6937
2.1054,0.6937
2.1057,0.6937
2.106,0.6938
2.1063,0.6939
2.1067,0.6941
2.107,0.6941
2.1074,0.6942
2.1077,0.6943
2.1081,0.6944
2.1086,0.6946
2.109,0.6947
2.1095,0.6948
2.1098,0.695
2.11,0.695
2.1102,0.695
2.1104,0.6948
2.1106,0.6947
2.1109,0.6947
2.1112,0.6948
2.1115,0.6949
2.1119,0.695
2.1124,0.6953
2.1129,0.6956
2.1134,0.6958
2.1139,0.6959
2.1142,0.6959
2.1144,0.6959
2.1146,0.6959
2.1148,0.6959
2.1151,0.6957
2.1153,0.6958
2.1157,0.6959
2.116,0.696
2.1164,0.6961
2.1167,0.6961
2.1171,0.6962
2.1174,0.6964
2.1177,0.6965
2.118,0.6965
2.1184,0.6965
2.1187,0.6966
2.1191,0.6967
2.1195,0.6969
2.1199,0.697
2.1203,0.6971
2.1208,0.6973
2.1212,0.6974
2.1214,0.6974
2.1216,0.6974
2.1218,0.6974
2.122,0.6972
2.1222,0.6972
2.1225,0.6972
2.1228,0.6973
2.1232,0.6974
2.1236,0.6976
2.1241,0.6979
2.1247,0.6981
2.1252,0.6983
2.1256,0.6984
2.1258,0.6984
2.126,0.6984
2.1262,0.6984
2.1265,0.6983
2.1267,0.6982
2.127,0.6983
2.1273,0.6983
2.1277,0.6983
2.128,0.6985
2.1284,0.6987
2.1288,0.6988
2.1291,0.6989
2.1294,0.6989
2.1297,0.6989
2.13,0.699
2.1304,0.6991
2.1308,0.6993
2.1312,0.6994
2.1316,0.6996
2.1321,0.6997
2.1325,0.6998
2.1328,0.6997
2.133,0.6997
2.1332,0.6997
2.1334,0.6997
2.1336,0.6997
2.1339,0.6997
2.1342,0.6997
2.1345,0.6998
2.1349,0.6999
2.1354,0.7
2.1359,0.7002
2.1364,0.7005
2.1369,0.7008
2.1372,0.7009
2.1374,0.7008
2.1376,0.7008
2.1378,0.7006
2.1381,0.7006
2.1384,0.7006
2.1387,0.7007
2.139,0.7008
2.1393,0.7009
2.1397,0.7011
2.14,0.7012
2.1404,0.7012
2.1407,0.7012
2.141,0.7013
2.1414,0.7014
2.1417,0.7014
2.1421,0.7015
2.1424,0.7017
2.1429,0.7018
2.1433,0.7019
2.1438,0.702
2.1441,0.7022
2.1444,0.7022
2.1446,0.7022
2.1448,0.7021
2.145,0.7021
2.1452,0.7021
2.1455,0.7022
2.1458,0.7021
2.1462,0.7022
2.1466,0.7024
2.1471,0.7026
2.1477,0.7029
2.1482,0.7032
2.1486,0.7033
2.1488,0.7033
2.149,0.7031
2.1492,0.7031
2.1494,0.7031
2.1497,0.703
2.15,0.703
2.1503,0.7031
2.1507,0.7032
2.151,0.7033
2.1514,0.7035
2.1517,0.7035
2.152,0.7035
2.1524,0.7035
2.1527,0.7037
2.153,0.7038
2.1534,0.7038
2.1538,0.7039
2.1542,0.704
2.1546,0.7041
2.155,0.7044
2.1554,0.7046
2.1558,0.7046
2.156,0.7045
2.1562,0.7044
2.1564,0.7044
2.1566,0.7044
2.1569,0.7045
2.1572,0.7045
2.1575,0.7046
2.1579,0.7047
2.1584,0.7048
2.1589,0.705
2.1595,0.7053
2.1599,0.7055
2.1602,0.7055
2.1604,0.7055
2.1606,0.7055
2.1608,0.7054
2.1611,0.7053
2.1614,0.7054
2.1617,0.7054
2.162,0.7054
2.1624,0.7054
2.1627,0.7056
2.1631,0.7057
2.1634,0.7058
2.1637,0.7059
2.164,0.7059
2.1643,0.7059
2.1647,0.706
2.1651,0.706
2.1655,0.7062
2.1659,0.7064
2.1664,0.7066
2.1668,0.7068
2.1671,0.7069
2.1674,0.7068
2.1676,0.7068
2.1677,0.7067
2.168,0.7066
2.1682,0.7066
2.1685,0.7067
2.1688,0.7068
2.1692,0.7069
2.1697,0.7071
2.1702,0.7073
2.1708,0.7075
2.1712,0.7077
2.1716,0.7078
2.1718,0.7078
2.172,0.7076
2.1722,0.7075
2.1724,0.7075
2.1727,0.7076
2.173,0.7076
2.1733,0.7077
2.1737,0.7078
2.174,0.7078
2.1744,0.7079
2.1747,0.708
2.175,0.7081
2.1754,0.7081
2.1757,0.7082
2.176,0.7083
2.1764,0.7084
2.1768,0.7085
2.1772,0.7086
2.1776,0.7087
2.1781,0.7089
2.1785,0.709
2.1788,0.709
2.179,0.7089
2.1792,0.7088
2.1794,0.7089
2.1796,0.7089
2.1799,0.7089
2.1802,0.7089
2.1805,0.709
2.181,0.7093
2.1815,0.7095
2.182,0.7097
2.1825,0.7099
2.1829,0.71
2.1832,0.71
2.1833,0.7099
2.1835,0.7098
2.1838,0.7098
2.184,0.7098
2.1843,0.7099
2.1847,0.7099
2.185,0.71
2.1854,0.7101
2.1857,0.7102
2.1861,0.7102
2.1864,0.7102
2.1867,0.7103
2.187,0.7105
2.1874,0.7106
2.1877,0.7105
2.1881,0.7106
2.1885,0.7107
2.1889,0.711
2.1894,0.7111
2.1898,0.7112
2.1901,0.7112
2.1903,0.7112
2.1905,0.7111
2.1907,0.7111
2.191,0.7111
2.1912,0.7111
2.1915,0.7111
2.1919,0.7112
2.1923,0.7114
2.1927,0.7116
2.1933,0.7118
2.1938,0.7119
2.1943,0.7121
2.1946,0.7122
2.1948,0.7122
2.1949,0.7121
2.1952,0.7121
2.1954,0.712
2.1957,0.7121
2.196,0.7121
2.1963,0.7121
2.1967,0.7121
2.197,0.7124
2.1974,0.7125
2.1977,0.7125
2.198,0.7125
2.1984,0.7125
2.1987,0.7125
2.199,0.7127
2.1994,0.7128
2.1998,0.7129
2.2002,0.7131
2.2007,0.7133
2.2011,0.7134
2.2015,0.7135
2.2018,0.7134
2.202,0.7133
2.2021,0.7133
2.2023,0.7132
2.2026,0.7133
2.2029,0.7133
2.2032,0.7132
2.2035,0.7134
2.204,0.7135
2.2045,0.7138
2.205,0.7141
2.2055,0.7143
2.2059,0.7143
2.2062,0.7142
2.2063,0.7142
2.2065,0.7142
2.2068,0.7141
2.207,0.7141
2.2073,0.7141
2.2077,0.7142
2.208,0.7144
2.2083,0.7144
2.2087,0.7144
2.2091,0.7145
2.2094,0.7146
2.2097,0.7146
2.21,0.7146
2.2104,0.7147
2.2107,0.7149
2.2111,0.7149
2.2115,0.715
2.2119,0.7152
2.2124,0.7154
2.2128,0.7155
2.2131,0.7155
2.2133,0.7155
2.2135,0.7155
2.2137,0.7154
2.2139,0.7154
2.2142,0.7154
2.2145,0.7153
2.2148,0.7154
2.2152,0.7157
2.2157,0.7158
2.2162,0.716
2.2168,0.7163
2.2172,0.7164
2.2175,0.7163
2.2177,0.7163
2.2179,0.7163
2.2181,0.7162
2.2184,0.7161
2.2187,0.7162
2.219,0.7163
2.2193,0.7164
2.2197,0.7165
2.22,0.7165
2.2204,0.7166
2.2207,0.7167
2.221,0.7167
2.2213,0.7167
2.2217,0.7168
2.222,0.7168
2.2224,0.7169
2.2228,0.7171
2.2232,0.7172
2.2237,0.7174
2.2241,0.7175
2.2244,0.7176
2.2247,0.7176
2.2249,0.7176
2.2251,0.7175
2.2253,0.7174
2.2256,0.7174
2.2259,0.7174
2.2262,0.7175
2.2266,0.7175
2.227,0.7177
2.2275,0.718
2.228,0.7182
2.2285,0.7185
2.2289,0.7185
2.2292,0.7185
2.2293,0.7184
2.2295,0.7183
2.2298,0.7182
2.23,0.7183
2.2303,0.7183
2.2306,0.7183
2.231,0.7185
2.2313,0.7185
2.2317,0.7186
2.232,0.7187
2.2324,0.7188
2.2327,0.7188
2.233,0.7187
2.2334,0.7188
2.2337,0.719
2.2341,0.7191
2.2345,0.7192
2.2349,0.7193
2.2354,0.7195
2.2358,0.7196
2.2361,0.7196
2.2363,0.7196
2.2365,0.7196
2.2367,0.7195
2.2369,0.7194
2.2372,0.7194
2.2375,0.7195
2.2379,0.7196
2.2383,0.7197
2.2388,0.72
2.2393,0.7202
2.2398,0.7204
2.2403,0.7206
2.2405,0.7206
2.2407,0.7204
2.2409,0.7203
2.2411,0.7202
2.2414,0.7202
2.2417,0.7203
2.242,0.7204
2.2423,0.7205
2.2427,0.7204
2.243,0.7206
2.2434,0.7206
2.2437,0.7207
2.244,0.7208
2.2444,0.7208
2.2447,0.7209
2.245,0.7209
2.2454,0.7211
2.2458,0.7211
2.2462,0.7213
2.2467,0.7214
2.2472,0.7216
2.2475,0.7217
2.2477,0.7217
2.2479,0.7215
2.2481,0.7213
2.2483,0.7213
2.2486,0.7212
2.2489,0.7213
2.2492,0.7214
2.2496,0.7216
2.25,0.7217
2.2505,0.7219
2.251,0.7221
2.2515,0.7223
2.2519,0.7224
2.2522,0.7224
2.2524,0.7223
2.2526,0.7222
2.2528,0.7222
2.2531,0.7222
2.2534,0.7222
2.2537,0.7223
2.254,0.7224
2.2544,0.7225
2.2547,0.7226
2.2551,0.7226
2.2554,0.7226
2.2557,0.7226
2.256,0.7227
2.2564,0.7227
2.2567,0.7228
2.2571,0.7229
2.2575,0.723
2.258,0.7232
2.2584,0.7234
2.2588,0.7236
2.2591,0.7236
2.2593,0.7235
2.2595,0.7234
2.2597,0.7233
2.2599,0.7232
2.2602,0.7233
2.2605,0.7234
2.2609,0.7234
2.2613,0.7235
2.2618,0.7237
2.2623,0.724
2.2628,0.7242
2.2632,0.7243
2.2635,0.7244
2.2637,0.7243
2.2639,0.7242
2.2642,0.7241
2.2644,0.7242
2.2647,0.7241
2.265,0.7241
2.2653,0.7241
2.2656,0.7243
2.266,0.7244
2.2664,0.7244
2.2667,0.7245
2.267,0.7245
2.2673,0.7245
2.2677,0.7245
2.268,0.7247
2.2684,0.7247
2.2688,0.7248
2.2692,0.725
2.2697,0.7253
2.2701,0.7254
2.2705,0.7254
2.2707,0.7253
2.2709,0.7252
2.2711,0.7251
2.2713,0.7251
2.2716,0.7251
2.2719,0.7252
2.2722,0.7253
2.2726,0.7253
2.273,0.7254
2.2735,0.7257
2.2741,0.726
2.2745,0.7261
2.2749,0.7261
2.2751,0.7261
2.2753,0.726
2.2755,0.7259
2.2757,0.7259
2.276,0.7259
2.2763,0.7259
2.2766,0.726
2.277,0.7261
2.2773,0.7262
2.2777,0.7263
2.278,0.7262
2.2784,0.7263
2.2787,0.7263
2.279,0.7263
2.2793,0.7265
2.2797,0.7266
2.2801,0.7267
2.2805,0.7268
2.2809,0.7269
2.2814,0.727
2.2818,0.7272
2.2821,0.7272
2.2823,0.7271
2.2825,0.727
2.2827,0.727
2.2829,0.7269
2.2832,0.7269
2.2835,0.7269
2.2839,0.7271
2.2842,0.7272
2.2847,0.7274
2.2852,0.7277
2.2858,0.7279
2.2862,0.7281
2.2865,0.728
2.2867,0.728
2.2869,0.7279
2.2871,0.7278
2.2874,0.7277
2.2877,0.7278
2.288,0.7278
2.2884,0.7279
2.2887,0.728
2.289,0.728
2.2894,0.728
2.2897,0.7281
2.29,0.7281
2.2904,0.7282
2.2907,0.7282
2.2911,0.7284
2.2914,0.7284
2.2918,0.7285
2.2922,0.7286
2.2927,0.7287
2.2931,0.7288
2.2934,0.7289
2.2937,0.7289
2.2939,0.7288
2.2941,0.7287
2.2943,0.7287
2.2946,0.7287
2.2949,0.7287
2.2952,0.7288
2.2956,0.7289
2.296,0.7291
2.2966,0.7292
2.2971,0.7294
2.2976,0.7296
2.2979,0.7297
2.2982,0.7297
2.2983,0.7296
2.2985,0.7296
2.2988,0.7295
2.299,0.7295
2.2993,0.7295
2.2997,0.7295
2.3,0.7296
2.3004,0.7296
2.3007,0.7297
2.301,0.7297
2.3014,0.7297
2.3017,0.7298
2.302,0.7299
2.3024,0.7299
2.3027,0.7301
2.3031,0.7302
2.3035,0.7303
2.304,0.7305
2.3044,0.7306
2.3048,0.7307
2.3051,0.7307
2.3053,0.7306
2.3055,0.7305
2.3057,0.7305
2.3059,0.7305
2.3062,0.7304
2.3065,0.7304
2.3069,0.7306
2.3073,0.7308
2.3078,0.7309
2.3083,0.7311
2.3088,0.7313
2.3092,0.7314
2.3095,0.7314
2.3097,0.7313
2.3099,0.7312
2.3101,0.7312
2.3104,0.7312
2.3106,0.7312
2.311,0.7313
2.3113,0.7313
2.3117,0.7314
2.312,0.7314
2.3124,0.7315
2.3127,0.7315
2.3131,0.7315
2.3134,0.7318
2.3137,0.7319
2.3141,0.7318
2.3144,0.7315
2.3148,0.7318
2.3153,0.7323
2.3157,0.7325
2.3161,0.7324
2.3165,0.7322
2.3167,0.7323
2.3169,0.7325
2.3171,0.7324
2.3173,0.7321
2.3176,0.732
2.3179,0.732
2.3182,0.7321
2.3186,0.7323
2.319,0.7325
2.3195,0.7327
2.3201,0.7328
2.3205,0.7329
2.3209,0.733
2.3211,0.7331
2.3213,0.733
2.3215,0.7328
2.3217,0.7328
2.322,0.7329
2.3223,0.7329
2.3227,0.7328
2.323,0.7329
2.3234,0.7331
2.3237,0.7331
2.3241,0.7331
2.3244,0.7332
2.3247,0.7333
2.325,0.7333
2.3254,0.7334
2.3257,0.7335
2.3261,0.7337
2.3265,0.7337
2.327,0.7338
2.3274,0.734
2.3278,0.7341
2.3281,0.7341
2.3283,0.7339
2.3284,0.7337
2.3287,0.7337
2.3289,0.7337
2.3292,0.7337
2.3295,0.7337
2.3299,0.7339
2.3303,0.734
2.3308,0.7342
2.3313,0.7344
2.3318,0.7347
2.3322,0.7348
2.3325,0.7347
2.3327,0.7346
2.3329,0.7345
2.3331,0.7345
2.3334,0.7345
2.3337,0.7344
2.334,0.7345
2.3343,0.7345
2.3347,0.7346
2.335,0.7347
2.3354,0.7349
2.3357,0.7349
2.336,0.7348
2.3364,0.7348
2.3367,0.735
2.337,0.735
2.3374,0.735
2.3378,0.7351
2.3382,0.7354
2.3387,0.7355
2.3391,0.7356
2.3394,0.7357
2.3397,0.7356
2.3399,0.7355
2.3401,0.7354
2.3403,0.7354
2.3406,0.7354
2.3409,0.7353
2.3412,0.7354
2.3416,0.7355
2.3421,0.7357
2.3426,0.7359
2.3431,0.736
2.3436,0.7362
2.3439,0.7363
2.3441,0.7362
2.3443,0.7361
2.3445,0.736
2.3447,0.7359
2.345,0.7359
2.3453,0.7359
2.3456,0.7361
2.346,0.7362
2.3464,0.7362
2.3467,0.7362
2.347,0.7362
2.3473,0.7363
2.3477,0.7364
2.348,0.7364
2.3484,0.7364
2.3487,0.7365
2.3491,0.7367
2.3495,0.7368
2.35,0.7371
2.3505,0.7372
2.3508,0.7373
2.3511,0.7373
2.3513,0.7372
2.3514,0.7371
2.3517,0.7369
2.3519,0.7368
2.3522,0.7368
2.3525,0.7369
2.3529,0.7369
2.3533,0.7371
2.3538,0.7372
2.3544,0.7375
2.3549,0.7378
2.3552,0.7379
2.3555,0.7379
2.3556,0.7377
2.3558,0.7376
2.3561,0.7376
2.3564,0.7376
2.3567,0.7376
2.357,0.7376
2.3574,0.7376
2.3577,0.7377
2.3581,0.7378
2.3584,0.7378
2.3587,0.7378
2.359,0.7378
2.3594,0.7379
2.3597,0.738
2.3601,0.738
2.3604,0.7381
2.3609,0.7383
2.3613,0.7384
2.3618,0.7385
2.3622,0.7387
2.3624,0.7387
2.3626,0.7385
2.3628,0.7383
2.363,0.7383
2.3633,0.7383
2.3635,0.7383
2.3638,0.7383
2.3642,0.7383
2.3646,0.7385
2.3651,0.7387
2.3656,0.739
2.3662,0.7392
2.3666,0.7393
2.3669,0.7392
2.3671,0.7392
2.3673,0.739
2.3675,0.7391
2.3677,0.7391
2.368,0.739
2.3683,0.7391
2.3687,0.7391
2.369,0.7392
2.3694,0.7392
2.3698,0.7392
2.3701,0.7393
2.3704,0.7393
2.3707,0.7394
2.371,0.7394
2.3714,0.7395
2.3717,0.7396
2.3721,0.7397
2.3726,0.7399
2.373,0.7399
2.3735,0.74
2.3738,0.7401
2.3741,0.7401
2.3742,0.74
2.3744,0.7399
2.3746,0.7397
2.3749,0.7397
2.3752,0.7398
2.3755,0.7398
2.3759,0.7398
2.3763,0.7399
2.3769,0.7402
2.3774,0.7404
2.3779,0.7407
2.3782,0.7407
2.3785,0.7407
2.3786,0.7406
2.3788,0.7405
2.3791,0.7404
2.3794,0.7404
2.3797,0.7404
2.38,0.7404
2.3804,0.7405
2.3807,0.7405
2.381,0.7405
2.3814,0.7406
2.3817,0.7407
2.382,0.7407
2.3824,0.7407
2.3827,0.7408
2.3831,0.7409
2.3834,0.741
2.3839,0.7411
2.3843,0.7412
2.3848,0.7413
2.3852,0.7414
2.3854,0.7414
2.3856,0.7413
2.3858,0.7412
2.386,0.7411
2.3863,0.741
2.3865,0.741
2.3869,0.7411
2.3872,0.7412
2.3876,0.7413
2.3881,0.7415
2.3887,0.7417
2.3892,0.742
2.3896,0.742
2.3898,0.7419
2.39,0.7419
2.3902,0.7419
2.3905,0.7418
2.3907,0.7416
2.391,0.7416
2.3913,0.7417
2.3917,0.7418
2.392,0.7419
2.3924,0.7418
2.3927,0.7419
2.393,0.742
2.3934,0.7421
2.3937,0.7421
2.394,0.7421
2.3944,0.7422
2.3948,0.7422
2.3951,0.7423
2.3956,0.7424
2.396,0.7426
2.3964,0.7427
2.3968,0.7427
2.397,0.7426
2.3972,0.7425
2.3974,0.7425
2.3976,0.7424
2.3979,0.7423
2.3982,0.7423
2.3985,0.7425
2.3989,0.7426
2.3993,0.7427
2.3999,0.743
2.4004,0.7432
2.4009,0.7433
2.4012,0.7433
2.4014,0.7431
2.4016,0.7431
2.4018,0.743
2.4021,0.7429
2.4024,0.743
2.4027,0.743
2.403,0.7431
2.4034,0.7431
2.4037,0.7431
2.4041,0.7432
2.4044,0.7433
2.4047,0.7432
2.405,0.7433
2.4053,0.7433
2.4057,0.7433
2.406,0.7434
2.4064,0.7435
2.4069,0.7436
2.4073,0.7438
2.4077,0.7439
2.4081,0.744
2.4084,0.7439
2.4086,0.7437
2.4088,0.7436
2.409,0.7436
2.4092,0.7437
2.4095,0.7436
2.4098,0.7437
2.4102,0.7438
2.4107,0.7438
2.4112,0.744
2.4117,0.7443
2.4122,0.7444
2.4126,0.7443
2.4128,0.7443
2.413,0.7443
2.4132,0.7442
2.4134,0.7441
2.4137,0.7442
2.414,0.7442
2.4143,0.7442
2.4147,0.7443
2.415,0.7443
2.4154,0.7443
2.4157,0.7444
2.416,0.7444
2.4164,0.7445
2.4167,0.7445
2.417,0.7445
2.4174,0.7445
2.4178,0.7447
2.4182,0.7448
2.4186,0.7449
2.4191,0.745
2.4195,0.745
2.4198,0.7451
2.42,0.7451
2.4202,0.7449
2.4204,0.7447
2.4206,0.7447
2.4209,0.7447
2.4212,0.7447
2.4215,0.7449
2.422,0.745
2.4224,0.7451
2.423,0.7453
2.4235,0.7456
2.4239,0.7456
2.4242,0.7455
2.4244,0.7454
2.4246,0.7453
2.4248,0.7453
2.425,0.7453
2.4253,0.7453
2.4257,0.7452
2.426,0.7453
2.4264,0.7454
2.4267,0.7455
2.4271,0.7455
2.4274,0.7454
2.4277,0.7455
2.428,0.7455
2.4284,0.7455
2.4287,0.7457
2.4291,0.7457
2.4295,0.7458
2.4299,0.7459
2.4304,0.7459
2.4308,0.746
2.4311,0.746
2.4314,0.7461
2.4316,0.746
2.4318,0.7459
2.432,0.7459
2.4322,0.7458
2.4325,0.7458
2.4329,0.7459
2.4333,0.746
2.4337,0.7461
2.4342,0.7463
2.4348,0.7465
2.4352,0.7466
2.4356,0.7466
2.4358,0.7466
2.436,0.7464
2.4362,0.7463
2.4364,0.7464
2.4367,0.7463
2.437,0.7462
2.4373,0.7462
2.4377,0.7463
2.438,0.7464
2.4384,0.7464
2.4387,0.7466
2.439,0.7466
2.4394,0.7465
2.4397,0.7465
2.44,0.7466
2.4404,0.7467
2.4408,0.7467
2.4412,0.7468
2.4416,0.747
2.4421,0.7471
2.4425,0.7472
2.4428,0.7471
2.443,0.7471
2.4431,0.7469
2.4433,0.7468
2.4436,0.7468
2.4439,0.7467
2.4442,0.7468
2.4445,0.7468
2.4449,0.7469
2.4454,0.7471
2.446,0.7472
2.4465,0.7475
2.4469,0.7477
2.4472,0.7476
2.4474,0.7475
2.4476,0.7473
2.4478,0.7472
2.4481,0.7473
2.4483,0.7473
2.4486,0.7473
2.449,0.7474
2.4493,0.7474
2.4497,0.7474
2.4501,0.7474
2.4504,0.7475
2.4507,0.7474
2.451,0.7475
2.4513,0.7475
2.4517,0.7475
2.4521,0.7476
2.4525,0.7477
2.4529,0.7479
2.4533,0.748
2.4538,0.7481
2.4541,0.7482
2.4543,0.7481
2.4545,0.748
2.4547,0.7479
2.455,0.7477
2.4552,0.7477
2.4555,0.7477
2.4558,0.7477
2.4562,0.7478
2.4567,0.748
2.4572,0.7482
2.4577,0.7483
2.4582,0.7484
2.4585,0.7485
2.4588,0.7484
2.459,0.7483
2.4592,0.7482
2.4594,0.7482
2.4597,0.7482
2.46,0.7482
2.4603,0.7482
2.4607,0.7483
2.461,0.7483
2.4614,0.7484
2.4617,0.7483
2.462,0.7483
2.4623,0.7483
2.4627,0.7484
2.463,0.7484
2.4634,0.7486
2.4638,0.7486
2.4642,0.7487
2.4646,0.7488
2.4651,0.7489
2.4654,0.749
2.4657,0.7489
2.4659,0.7487
2.4661,0.7486
2.4664,0.7485
2.4666,0.7486
2.4669,0.7486
2.4672,0.7486
2.4676,0.7487
2.468,0.7488
2.4685,0.749
2.469,0.7493
2.4695,0.7494
2.4699,0.7495
2.4702,0.7493
2.4704,0.7492
2.4706,0.7491
2.4708,0.749
2.471,0.749
2.4713,0.749
2.4717,0.7491
2.472,0.7492
2.4724,0.7491
2.4727,0.7491
2.4731,0.7492
2.4734,0.7492
2.4737,0.7492
2.474,0.7493
2.4744,0.7494
2.4747,0.7495
2.4751,0.7494
2.4755,0.7494
2.4759,0.7496
2.4764,0.7497
2.4768,0.7498
2.4771,0.7498
2.4774,0.7497
2.4775,0.7496
2.4777,0.7495
2.478,0.7494
2.4782,0.7494
2.4785,0.7495
2.4789,0.7495
2.4793,0.7495
2.4797,0.7497
2.4802,0.7498
2.4808,0.7501
2.4812,0.7502
2.4816,0.7502
2.4818,0.7501
2.482,0.7499
2.4822,0.7498
2.4824,0.7498
2.4827,0.7498
2.483,0.7498
2.4833,0.7498
2.4837,0.7498
2.484,0.7499
2.4844,0.7499
2.4847,0.75
2.485,0.7499
2.4854,0.75
2.4857,0.75
2.486,0.7501
2.4864,0.7501
2.4868,0.7502
2.4872,0.7502
2.4877,0.7504
2.4881,0.7506
2.4885,0.7506
2.4887,0.7505
2.4889,0.7504
2.4891,0.7503
2.4893,0.7502
2.4896,0.7502
2.4899,0.75
2.4902,0.7501
2.4905,0.7502
2.4909,0.7503
2.4914,0.7504
2.492,0.7506
2.4925,0.7509
2.4929,0.751
2.4932,0.7509
2.4934,0.7508
2.4936,0.7506
2.4938,0.7505
2.4941,0.7504
2.4944,0.7505
2.4947,0.7505
2.495,0.7505
2.4954,0.7506
2.4957,0.7507
2.4961,0.7508
2.4964,0.7507
2.4967,0.7507
2.497,0.7507
2.4973,0.7507
2.4977,0.7507
2.4981,0.7509
2.4985,0.7509
2.4989,0.751
2.4994,0.7511
2.4998,0.7512
2.5001,0.7513
2.5003,0.7512
2.5005,0.7511
2.5007,0.751
2.5009,0.7508
2.5012,0.7507
2.5015,0.7508
2.5019,0.7509
2.5023,0.751
2.5027,0.7511
2.5033,0.7512
2.5038,0.7514
2.5042,0.7515
2.5045,0.7515
2.5048,0.7514
2.505,0.7513
2.5052,0.7512
2.5054,0.7511
2.5057,0.7511
2.506,0.7511
2.5063,0.7511
2.5067,0.7512
2.507,0.7513
2.5074,0.7513
2.5077,0.7514
2.508,0.7513
2.5083,0.7513
2.5087,0.7514
2.509,0.7514
2.5094,0.7515
2.5098,0.7515
2.5102,0.7515
2.5107,0.7517
2.5111,0.7519
2.5115,0.7519
2.5117,0.7518
2.5119,0.7516
2.5121,0.7516
2.5123,0.7514
2.5126,0.7513
2.5129,0.7513
2.5132,0.7513
2.5136,0.7514
2.514,0.7515
2.5145,0.7517
2.515,0.7519
2.5155,0.752
2.5159,0.752
2.5161,0.752
2.5163,0.7519
2.5165,0.7518
2.5168,0.7518
2.517,0.7517
2.5173,0.7516
2.5176,0.7516
2.518,0.7516
2.5184,0.7517
2.5187,0.7518
2.5191,0.7518
2.5194,0.7518
2.5197,0.7518
2.52,0.7519
2.5204,0.7519
2.5207,0.7519
2.5211,0.752
2.5215,0.7521
2.5219,0.7522
2.5224,0.7523
2.5228,0.7525
2.5231,0.7524
2.5234,0.7522
2.5235,0.752
2.5237,0.7519
2.5239,0.7519
2.5242,0.7519
2.5245,0.7519
2.5249,0.7519
2.5252,0.752
2.5257,0.752
2.5262,0.7522
2.5268,0.7525
2.5272,0.7526
2.5276,0.7526
2.5278,0.7526
2.528,0.7525
2.5282,0.7524
2.5284,0.7523
2.5287,0.7523
2.529,0.7522
2.5293,0.7522
2.5297,0.7522
2.53,0.7523
2.5304,0.7524
2.5307,0.7523
2.5311,0.7523
2.5314,0.7522
2.5317,0.7523
2.532,0.7523
2.5324,0.7524
2.5328,0.7524
2.5332,0.7525
2.5336,0.7527
2.5341,0.7528
2.5344,0.7527
2.5347,0.7528
2.5349,0.7527
2.5351,0.7525
2.5353,0.7524
2.5356,0.7524
2.5359,0.7524
2.5362,0.7523
2.5365,0.7523
2.537,0.7525
2.5375,0.7528
2.538,0.7529
2.5386,0.753
2.5389,0.7531
2.5392,0.7531
2.5394,0.7529
2.5396,0.7527
2.5398,0.7527
2.54,0.7526
2.5403,0.7526
2.5407,0.7526
2.541,0.7526
2.5413,0.7528
2.5417,0.7528
2.542,0.7528
2.5424,0.7528
2.5427,0.7528
2.543,0.7528
2.5434,0.7528
2.5437,0.7528
2.5441,0.7529
2.5445,0.7528
2.5449,0.753
2.5454,0.7532
2.5458,0.7533
2.5461,0.7533
2.5464,0.7531
2.5465,0.753
2.5467,0.7529
2.547,0.7529
2.5472,0.7528
2.5475,0.7528
2.5479,0.7529
2.5483,0.753
2.5487,0.753
2.5493,0.7532
2.5498,0.7534
2.5502,0.7535
2.5505,0.7534
2.5507,0.7533
2.5509,0.7531
2.5511,0.7531
2.5514,0.753
2.5517,0.753
2.552,0.753
2.5523,0.7531
2.5527,0.7531
2.5531,0.7531
2.5534,0.7531
2.5537,0.7532
2.5541,0.7531
2.5544,0.7531
2.5547,0.7531
2.5551,0.7533
2.5554,0.7533
2.5558,0.7533
2.5563,0.7534
2.5567,0.7535
2.5571,0.7536
2.5575,0.7535
2.5577,0.7534
2.5579,0.7533
2.5581,0.7532
2.5583,0.7531
2.5586,0.7531
2.5589,0.7531
2.5592,0.7531
2.5595,0.7531
2.56,0.7532
2.5605,0.7534
2.561,0.7536
2.5615,0.7537
2.5619,0.7538
2.5621,0.7537
2.5623,0.7536
2.5625,0.7534
2.5628,0.7533
2.563,0.7533
2.5633,0.7533
2.5637,0.7534
2.564,0.7533
2.5644,0.7533
2.5647,0.7534
2.5651,0.7535
2.5654,0.7535
2.5657,0.7535
2.5661,0.7534
2.5664,0.7534
2.5668,0.7533
2.5671,0.7534
2.5675,0.7536
2.568,0.7537
2.5684,0.7538
2.5688,0.7539
2.5691,0.7538
2.5693,0.7537
2.5695,0.7536
2.5697,0.7534
2.5699,0.7533
2.5702,0.7533
2.5705,0.7533
2.5709,0.7533
2.5713,0.7535
2.5717,0.7536
2.5723,0.7538
2.5728,0.754
2.5732,0.754
2.5735,0.7539
2.5737,0.7539
2.5739,0.7538
2.5741,0.7536
2.5744,0.7536
2.5747,0.7536
2.575,0.7535
2.5753,0.7535
2.5757,0.7535
2.576,0.7536
2.5764,0.7536
2.5767,0.7535
2.577,0.7536
2.5773,0.7536
2.5777,0.7537
2.578,0.7537
2.5784,0.7536
2.5788,0.7536
2.5792,0.7538
2.5796,0.7539
2.5801,0.754
2.5804,0.7541
2.5807,0.7541
2.5809,0.7539
2.5811,0.7538
2.5813,0.7536
2.5816,0.7535
2.5819,0.7535
2.5822,0.7535
2.5826,0.7536
2.583,0.7538
2.5836,0.7539
2.5841,0.7541
2.5846,0.7543
2.5849,0.7543
2.5851,0.7541
2.5853,0.754
2.5855,0.7538
2.5857,0.7537
2.586,0.7537
2.5863,0.7537
2.5866,0.7537
2.587,0.7536
2.5873,0.7538
2.5877,0.7538
2.588,0.7539
2.5883,0.7538
2.5887,0.7538
2.589,0.7537
2.5894,0.7538
2.5897,0.7539
2.5901,0.754
2.5905,0.7541
2.591,0.7541
2.5914,0.7542
2.5918,0.7543
2.5921,0.7542
2.5923,0.7541
2.5925,0.7539
2.5927,0.7539
2.5929,0.7539
2.5932,0.7538
2.5935,0.7537
2.5939,0.7537
2.5943,0.7538
2.5948,0.754
2.5953,0.7542
2.5958,0.7544
2.5962,0.7544
2.5965,0.7543
2.5967,0.7542
2.5969,0.754
2.5971,0.7539
2.5974,0.7539
2.5977,0.7539
2.598,0.7539
2.5984,0.7539
2.5987,0.7539
2.5991,0.7539
2.5994,0.7539
2.5997,0.754
2.6001,0.754
2.6004,0.7539
2.6007,0.7539
2.6011,0.754
2.6014,0.754
2.6018,0.7541
2.6023,0.7541
2.6027,0.7543
2.6031,0.7543
2.6035,0.7543
2.6037,0.7542
2.6038,0.754
2.604,0.7539
2.6043,0.7537
2.6045,0.7537
2.6048,0.7537
2.6052,0.7537
2.6056,0.7538
2.606,0.7539
2.6066,0.7541
2.6071,0.7543
2.6076,0.7544
2.6079,0.7544
2.6081,0.7543
2.6083,0.7541
2.6085,0.754
2.6088,0.7539
2.609,0.7539
2.6093,0.7538
2.6097,0.7538
2.61,0.7538
2.6104,0.7539
2.6108,0.754
2.6111,0.754
2.6114,0.754
2.6117,0.754
2.612,0.7539
2.6124,0.7539
2.6127,0.7539
2.6131,0.754
2.6135,0.7541
2.614,0.7542
2.6144,0.7543
2.6148,0.7543
2.6151,0.7542
2.6153,0.7541
2.6155,0.7539
2.6157,0.7538
2.6159,0.7537
2.6162,0.7537
2.6165,0.7537
2.6169,0.7538
2.6173,0.7539
2.6178,0.754
2.6184,0.7542
2.6189,0.7544
2.6193,0.7544
2.6195,0.7543
2.6197,0.7542
2.6199,0.7541
2.6201,0.754
2.6204,0.7539
2.6207,0.7539
2.621,0.7539
2.6213,0.7538
2.6217,0.7539
2.622,0.7539
2.6224,0.7538
2.6227,0.7538
2.623,0.7538
2.6234,0.7538
2.6237,0.754
2.6241,0.754
2.6244,0.754
2.6248,0.754
2.6253,0.7541
2.6257,0.7542
2.6261,0.7542
2.6265,0.7543
2.6267,0.7542
2.6269,0.754
2.6271,0.7538
2.6273,0.7538
2.6275,0.7538
2.6278,0.7537
2.6282,0.7538
2.6286,0.7538
2.6291,0.7539
2.6296,0.754
2.6301,0.7543
2.6306,0.7543
2.6308,0.7542
2.6311,0.7541
2.6312,0.7541
2.6315,0.7539
2.6317,0.7537
2.632,0.7537
2.6323,0.7537
2.6327,0.7537
2.633,0.7537
2.6334,0.7538
2.6337,0.7539
2.634,0.7539
2.6344,0.7538
2.6347,0.7538
2.635,0.7539
2.6354,0.7539
2.6357,0.7538
2.6361,0.7538
2.6365,0.7538
2.637,0.754
2.6374,0.7541
2.6378,0.7541
2.638,0.754
2.6382,0.7539
2.6384,0.7537
2.6386,0.7536
2.6389,0.7536
2.6392,0.7535
2.6395,0.7536
2.6399,0.7536
2.6403,0.7537
2.6408,0.7538
2.6414,0.754
2.6419,0.7542
2.6422,0.7542
2.6425,0.7541
2.6427,0.7539
2.6429,0.7538
2.6431,0.7538
2.6434,0.7537
2.6437,0.7537
2.644,0.7537
2.6444,0.7537
2.6447,0.7537
2.6451,0.7537
2.6454,0.7537
2.6457,0.7538
2.646,0.7537
2.6463,0.7536
2.6467,0.7536
2.647,0.7535
2.6474,0.7535
2.6478,0.7537
2.6483,0.7538
2.6487,0.7539
2.6491,0.7539
2.6494,0.7539
2.6496,0.7537
2.6498,0.7536
2.65,0.7536
2.6502,0.7534
2.6505,0.7532
2.6508,0.7533
2.6512,0.7533
2.6516,0.7534
2.6521,0.7536
2.6527,0.7538
2.6532,0.7539
2.6536,0.7539
2.6538,0.7538
2.654,0.7537
2.6542,0.7537
2.6544,0.7535
2.6547,0.7533
2.655,0.7535
2.6553,0.7534
2.6557,0.7533
2.656,0.7534
2.6564,0.7535
2.6567,0.7534
2.657,0.7534
2.6574,0.7533
2.6577,0.7533
2.658,0.7533
2.6584,0.7533
2.6587,0.7534
2.6591,0.7535
2.6596,0.7536
2.6601,0.7538
2.6605,0.7538
2.6608,0.7537
2.661,0.7536
2.6612,0.7535
2.6614,0.7534
2.6616,0.7532
2.6619,0.7532
2.6622,0.7531
2.6625,0.7532
2.6629,0.7532
2.6634,0.7533
2.6639,0.7534
2.6645,0.7535
2.6649,0.7535
2.6652,0.7536
2.6654,0.7535
2.6656,0.7533
2.6658,0.7532
2.6661,0.7532
2.6663,0.7531
2.6666,0.7531
2.667,0.7531
2.6673,0.753
2.6677,0.7531
2.668,0.7532
2.6684,0.753
2.6687,0.7531
2.669,0.7531
2.6694,0.753
2.6697,0.753
2.6701,0.7531
2.6705,0.7532
2.6709,0.7531
2.6713,0.7533
2.6717,0.7533
2.6721,0.7533
2.6724,0.7532
2.6726,0.7531
2.6728,0.753
2.673,0.7529
2.6733,0.7528
2.6735,0.7528
2.6739,0.7528
2.6742,0.7528
2.6747,0.7529
2.6751,0.753
2.6757,0.7532
2.6762,0.7533
2.6766,0.7534
2.6768,0.7533
2.677,0.7531
2.6772,0.7529
2.6774,0.7528
2.6777,0.7528
2.678,0.7528
2.6783,0.7528
2.6787,0.7528
2.679,0.7529
2.6794,0.7529
2.6797,0.7528
2.68,0.7527
2.6804,0.7527
2.6807,0.7527
2.681,0.7527
2.6814,0.7527
2.6817,0.7527
2.6821,0.7528
2.6826,0.753
2.6831,0.7531
2.6835,0.7531
2.6838,0.753
2.684,0.7529
2.6842,0.7528
2.6844,0.7525
2.6846,0.7524
2.6849,0.7524
2.6852,0.7524
2.6855,0.7523
2.6859,0.7524
2.6864,0.7526
2.6869,0.7528
2.6875,0.7529
2.6879,0.753
2.6882,0.7529
2.6884,0.7528
2.6886,0.7526
2.6888,0.7525
2.6891,0.7524
2.6894,0.7523
2.6897,0.7524
2.69,0.7523
2.6903,0.7522
2.6907,0.7523
2.6911,0.7524
2.6914,0.7524
2.6917,0.7523
2.692,0.7523
2.6923,0.7523
2.6927,0.7523
2.6931,0.7523
2.6935,0.7524
2.6939,0.7524
2.6944,0.7526
2.6948,0.7526
2.6951,0.7526
2.6954,0.7525
2.6956,0.7524
2.6958,0.7522
2.696,0.752
2.6962,0.752
2.6965,0.7519
2.6968,0.7519
2.6972,0.752
2.6977,0.752
2.6982,0.7521
2.6987,0.7523
2.6992,0.7525
2.6996,0.7524
2.6998,0.7524
2.7,0.7522
2.7002,0.7521
2.7004,0.752
2.7007,0.7519
2.701,0.7518
2.7013,0.7518
2.7017,0.7518
2.702,0.7519
2.7024,0.7518
2.7027,0.7518
2.703,0.7519
2.7034,0.7518
2.7037,0.7517
2.704,0.7517
2.7044,0.7518
2.7048,0.7519
2.7052,0.7519
2.7056,0.7519
2.7061,0.752
2.7064,0.752
2.7067,0.752
2.707,0.7519
2.7071,0.7518
2.7074,0.7516
2.7076,0.7514
2.7079,0.7514
2.7082,0.7515
2.7085,0.7515
2.7089,0.7515
2.7094,0.7516
2.7099,0.7517
2.7105,0.7519
2.7109,0.752
2.7112,0.7519
2.7114,0.7518
2.7116,0.7516
2.7118,0.7515
2.7121,0.7514
2.7123,0.7513
2.7126,0.7513
2.713,0.7513
2.7133,0.7512
2.7137,0.7513
2.714,0.7514
2.7144,0.7513
2.7147,0.7513
2.715,0.7513
2.7153,0.7513
2.7157,0.7513
2.7161,0.7511
2.7165,0.7512
2.7169,0.7513
2.7173,0.7515
2.7178,0.7516
2.7181,0.7516
2.7184,0.7515
2.7186,0.7513
2.7188,0.7511
2.719,0.751
2.7192,0.751
2.7195,0.751
2.7199,0.751
2.7202,0.751
2.7207,0.751
2.7212,0.7511
2.7217,0.7513
2.7222,0.7514
2.7226,0.7515
2.7228,0.7513
2.723,0.7512
2.7232,0.751
2.7234,0.7509
2.7237,0.7508
2.724,0.7507
2.7243,0.7507
2.7247,0.7507
2.725,0.7508
2.7254,0.7508
2.7257,0.7508
2.726,0.7507
2.7264,0.7507
2.7267,0.7507
2.727,0.7508
2.7274,0.7508
2.7278,0.7507
2.7282,0.7507
2.7286,0.7509
2.7291,0.751
2.7295,0.751
2.7298,0.7509
2.73,0.7508
2.7302,0.7506
2.7304,0.7503
2.7306,0.7503
2.7309,0.7503
2.7312,0.7502
2.7315,0.7503
2.7319,0.7504
2.7324,0.7505
2.7329,0.7507
2.7335,0.7507
2.7339,0.7508
2.7342,0.7509
2.7344,0.7507
2.7346,0.7505
2.7348,0.7503
2.7351,0.7503
2.7354,0.7503
2.7357,0.7502
2.736,0.7501
2.7364,0.7501
2.7367,0.7501
2.7371,0.7501
2.7374,0.7501
2.7377,0.7501
2.738,0.7501
2.7384,0.7501
2.7387,0.7501
2.7391,0.7501
2.7395,0.7501
2.7399,0.7502
2.7404,0.7503
2.7408,0.7503
2.7411,0.7503
2.7414,0.7502
2.7416,0.7501
2.7418,0.7499
2.742,0.7496
2.7422,0.7496
2.7425,0.7496
2.7428,0.7495
2.7432,0.7496
2.7437,0.7497
2.7442,0.7499
2.7447,0.7501
2.7452,0.7501
2.7456,0.7501
2.7458,0.7499
2.746,0.7498
2.7462,0.7497
2.7464,0.7497
2.7467,0.7495
2.747,0.7494
2.7473,0.7494
2.7477,0.7494
2.748,0.7494
2.7484,0.7495
2.7487,0.7495
2.749,0.7495
2.7493,0.7494
2.7497,0.7493
2.75,0.7493
2.7504,0.7493
2.7508,0.7494
2.7512,0.7495
2.7516,0.7496
2.7521,0.7496
2.7525,0.7495
2.7528,0.7494
2.753,0.7492
2.7532,0.7492
2.7534,0.749
2.7536,0.749
2.7539,0.7489
2.7542,0.7489
2.7545,0.749
2.755,0.7491
2.7554,0.7491
2.756,0.7492
2.7565,0.7493
2.7569,0.7493
2.7572,0.7493
2.7574,0.7491
2.7576,0.749
2.7578,0.7489
2.758,0.7488
2.7583,0.7489
2.7586,0.7489
2.759,0.7488
2.7593,0.7488
2.7597,0.7488
2.76,0.7488
2.7604,0.7488
2.7607,0.7487
2.761,0.7486
2.7613,0.7487
2.7617,0.7487
2.7621,0.7486
2.7624,0.7487
2.7629,0.7488
2.7633,0.7489
2.7638,0.7489
2.7641,0.7489
2.7644,0.7488
2.7646,0.7486
2.7648,0.7484
2.765,0.7483
2.7652,0.7483
2.7655,0.7482
2.7658,0.7482
2.7662,0.7482
2.7666,0.7482
2.7671,0.7484
2.7677,0.7486
2.7682,0.7487
2.7685,0.7487
2.7688,0.7485
2.769,0.7483
2.7692,0.7481
2.7694,0.7481
2.7697,0.7481
2.77,0.748
2.7703,0.748
2.7707,0.748
2.771,0.748
2.7714,0.748
2.7717,0.7479
2.772,0.7479
2.7724,0.748
2.7727,0.7479
2.773,0.7479
2.7734,0.7479
2.7738,0.748
2.7742,0.7478
2.7746,0.7479
2.7751,0.748
2.7754,0.748
2.7757,0.748
2.776,0.7478
2.7761,0.7478
2.7764,0.7476
2.7766,0.7475
2.7769,0.7474
2.7772,0.7473
2.7775,0.7474
2.7779,0.7474
2.7784,0.7475
2.779,0.7476
2.7795,0.7478
2.7799,0.7478
2.7802,0.7478
2.7804,0.7477
2.7806,0.7475
2.7808,0.7474
2.7811,0.7473
2.7813,0.7472
2.7817,0.7473
2.782,0.7472
2.7824,0.7472
2.7827,0.7472
2.7831,0.7472
2.7834,0.7471
2.7837,0.7471
2.784,0.7471
2.7844,0.7472
2.7847,0.7471
2.7851,0.747
2.7855,0.747
2.7859,0.7471
2.7864,0.7473
2.7868,0.7474
2.7871,0.7472
2.7874,0.7471
2.7876,0.747
2.7877,0.7469
2.788,0.7467
2.7882,0.7466
2.7885,0.7465
2.7889,0.7465
2.7893,0.7467
2.7897,0.7467
2.7902,0.7468
2.7908,0.7469
2.7912,0.7471
2.7916,0.7471
2.7918,0.7469
2.792,0.7468
2.7922,0.7466
2.7924,0.7465
2.7927,0.7464
2.793,0.7464
2.7933,0.7464
2.7937,0.7463
2.794,0.7463
2.7944,0.7463
2.7947,0.7463
2.7951,0.7462
2.7954,0.7463
2.7957,0.7462
2.7961,0.7461
2.7964,0.7462
2.7968,0.7461
2.7972,0.7463
2.7977,0.7464
2.7981,0.7465
2.7985,0.7465
2.7987,0.7464
2.7989,0.7462
2.7991,0.746
2.7993,0.7459
2.7996,0.7458
2.7999,0.7457
2.8002,0.7457
2.8005,0.7457
2.801,0.7457
2.8014,0.7458
2.802,0.746
2.8025,0.7461
2.8029,0.7461
2.8031,0.746
2.8033,0.7459
2.8035,0.7457
2.8038,0.7457
2.804,0.7455
2.8043,0.7454
2.8046,0.7454
2.805,0.7454
2.8053,0.7454
2.8057,0.7454
2.806,0.7455
2.8064,0.7454
2.8067,0.7453
2.807,0.7453
2.8074,0.7452
2.8077,0.7453
2.8081,0.7453
2.8085,0.7453
2.8089,0.7454
2.8094,0.7455
2.8098,0.7455
2.8101,0.7454
2.8103,0.7454
2.8105,0.7452
2.8107,0.745
2.8109,0.7448
2.8112,0.7447
2.8115,0.7448
2.8119,0.7448
2.8122,0.7449
2.8127,0.7451
2.8132,0.7451
2.8138,0.7451
2.8142,0.7452
2.8145,0.7451
2.8147,0.745
2.8149,0.7449
2.8151,0.7447
2.8154,0.7447
2.8157,0.7447
2.816,0.7446
2.8163,0.7446
2.8167,0.7445
2.817,0.7445
2.8174,0.7444
2.8177,0.7444
2.818,0.7444
2.8184,0.7445
2.8187,0.7445
2.819,0.7444
2.8194,0.7444
2.8198,0.7444
2.8202,0.7445
2.8206,0.7445
2.8211,0.7444
2.8214,0.7445
2.8217,0.7444
2.8219,0.7442
2.8221,0.7441
2.8223,0.744
2.8226,0.7438
2.8229,0.7439
2.8232,0.7439
2.8236,0.7439
2.824,0.744
2.8245,0.7441
2.8251,0.7443
2.8256,0.7444
2.8259,0.7443
2.8262,0.7442
2.8264,0.744
2.8265,0.7439
2.8268,0.7438
2.827,0.7437
2.8273,0.7436
2.8276,0.7435
2.828,0.7435
2.8283,0.7435
2.8287,0.7435
2.829,0.7435
2.8294,0.7434
2.8297,0.7434
2.83,0.7435
2.8304,0.7435
2.8307,0.7434
2.8311,0.7432
2.8315,0.7433
2.832,0.7436
2.8324,0.7436
2.8328,0.7436
2.8331,0.7437
2.8333,0.7435
2.8335,0.7432
2.8337,0.743
2.8339,0.7429
2.8342,0.7429
2.8345,0.7429
2.8349,0.7429
2.8353,0.743
2.8358,0.743
2.8363,0.7432
2.8369,0.7434
2.8373,0.7433
2.8375,0.7432
2.8377,0.743
2.8379,0.7428
2.8381,0.7428
2.8384,0.7427
2.8387,0.7427
2.839,0.7426
2.8393,0.7425
2.8397,0.7426
2.8401,0.7426
2.8404,0.7426
2.8407,0.7426
2.8411,0.7426
2.8414,0.7425
2.8417,0.7424
2.8421,0.7424
2.8424,0.7423
2.8428,0.7424
2.8432,0.7426
2.8437,0.7427
2.8441,0.7427
2.8445,0.7426
2.8447,0.7425
2.8449,0.7423
2.8451,0.7422
2.8453,0.7421
2.8456,0.7419
2.8458,0.7419
2.8462,0.7418
2.8466,0.7418
2.847,0.7418
2.8475,0.742
2.8481,0.7422
2.8486,0.7423
2.8489,0.7423
2.8491,0.7421
2.8493,0.742
2.8495,0.7419
2.8498,0.7417
2.85,0.7416
2.8503,0.7416
2.8507,0.7415
2.851,0.7415
2.8514,0.7415
2.8517,0.7416
2.8521,0.7416
2.8524,0.7415
2.8527,0.7414
2.853,0.7414
2.8534,0.7414
2.8537,0.7413
2.8541,0.7413
2.8545,0.7413
2.855,0.7415
2.8554,0.7416
2.8558,0.7417
2.8561,0.7416
2.8563,0.7414
2.8565,0.7412
2.8567,0.7411
2.8569,0.741
2.8572,0.7408
2.8575,0.7408
2.8579,0.7408
2.8583,0.7408
2.8588,0.741
2.8593,0.7412
2.8598,0.7413
2.8602,0.7414
2.8605,0.7412
2.8607,0.741
2.8609,0.7409
2.8611,0.7408
2.8614,0.7407
2.8617,0.7406
2.862,0.7406
2.8623,0.7405
2.8627,0.7405
2.863,0.7406
2.8634,0.7405
2.8637,0.7404
2.864,0.7404
2.8644,0.7404
2.8647,0.7404
2.8651,0.7404
2.8654,0.7404
2.8658,0.7404
2.8662,0.7405
2.8667,0.7405
2.8671,0.7406
2.8675,0.7405
2.8677,0.7403
2.8679,0.7402
2.8681,0.7401
2.8683,0.7399
2.8686,0.7398
2.8689,0.7396
2.8692,0.7397
2.8696,0.7397
2.87,0.7399
2.8705,0.74
2.8711,0.7402
2.8716,0.7403
2.8719,0.7402
2.8721,0.74
2.8723,0.7399
2.8725,0.7398
2.8728,0.7397
2.873,0.7397
2.8733,0.7396
2.8737,0.7395
2.874,0.7394
2.8744,0.7393
2.8747,0.7393
2.875,0.7394
2.8754,0.7393
2.8757,0.7392
2.876,0.7392
2.8764,0.7392
2.8767,0.7392
2.8771,0.7392
2.8775,0.7393
2.878,0.7393
2.8784,0.7394
2.8788,0.7394
2.879,0.7393
2.8793,0.7391
2.8794,0.739
2.8797,0.7388
2.8799,0.7387
2.8802,0.7386
2.8805,0.7386
2.8809,0.7385
2.8813,0.7386
2.8818,0.7388
2.8824,0.739
2.8829,0.7391
2.8832,0.7391
2.8835,0.739
2.8837,0.7389
2.8839,0.7387
2.8841,0.7385
2.8844,0.7384
2.8847,0.7384
2.885,0.7384
2.8853,0.7384
2.8857,0.7384
2.8861,0.7384
2.8864,0.7384
2.8867,0.7383
2.887,0.7382
2.8873,0.7382
2.8877,0.7381
2.888,0.7382
2.8884,0.7381
2.8888,0.7382
2.8892,0.7383
2.8897,0.7383
2.8901,0.7383
2.8904,0.7382
2.8907,0.7382
2.8908,0.738
2.891,0.738
2.8913,0.7378
2.8915,0.7377
2.8918,0.7375
2.8922,0.7375
2.8926,0.7375
2.8931,0.7376
2.8936,0.7378
2.8942,0.7381
2.8946,0.7381
2.8948,0.738
2.895,0.7379
2.8952,0.7377
2.8955,0.7375
2.8957,0.7373
2.896,0.7373
2.8963,0.7373
2.8967,0.7373
2.897,0.7373
2.8974,0.7373
2.8977,0.7373
2.898,0.7372
2.8984,0.7372
2.8987,0.7371
2.899,0.7371
2.8994,0.7371
2.8997,0.7371
2.9001,0.7371
2.9006,0.7371
2.901,0.7372
2.9015,0.7374
2.9018,0.7373
2.9021,0.7371
2.9023,0.7369
2.9024,0.7368
2.9026,0.7367
2.9029,0.7367
2.9032,0.7366
2.9035,0.7364
2.9039,0.7364
2.9044,0.7365
2.9049,0.7366
2.9054,0.7368
2.9059,0.7369
2.9062,0.7369
2.9064,0.7368
2.9066,0.7366
2.9068,0.7364
2.9071,0.7363
2.9074,0.7361
2.9077,0.7362
2.908,0.7362
2.9084,0.7362
2.9087,0.7362
2.9091,0.7362
2.9094,0.7361
2.9097,0.736
2.91,0.7359
2.9104,0.7359
2.9107,0.736
2.9111,0.736
2.9115,0.736
2.9119,0.736
2.9123,0.7361
2.9127,0.736
2.9131,0.7361
2.9134,0.7361
2.9136,0.7359
2.9138,0.7357
2.914,0.7355
2.9143,0.7355
2.9145,0.7354
2.9149,0.7354
2.9152,0.7354
2.9156,0.7355
2.9161,0.7355
2.9167,0.7356
2.9172,0.7357
2.9176,0.7358
2.9179,0.7357
2.9181,0.7355
2.9182,0.7353
2.9185,0.7352
2.9187,0.7352
2.919,0.7351
2.9193,0.7351
2.9197,0.735
2.92,0.7349
2.9204,0.7349
2.9207,0.7349
2.921,0.7349
2.9214,0.7349
2.9217,0.7349
2.922,0.7348
2.9224,0.7347
2.9227,0.7346
2.9231,0.7348
2.9236,0.7348
2.9241,0.7349
2.9245,0.735
2.9248,0.735
2.925,0.7349
2.9252,0.7346
2.9254,0.7344
2.9256,0.7343
2.9259,0.7343
2.9262,0.7342
2.9265,0.7342
2.9269,0.7342
2.9274,0.7342
2.9279,0.7343
2.9284,0.7345
2.9289,0.7347
2.9292,0.7346
2.9294,0.7344
2.9296,0.7342
2.9298,0.7341
2.9301,0.734
2.9304,0.7339
2.9307,0.7339
2.931,0.7337
2.9313,0.7338
2.9317,0.7338
2.932,0.7338
2.9324,0.7337
2.9327,0.7338
2.933,0.7337
2.9333,0.7336
2.9337,0.7336
2.9341,0.7336
2.9345,0.7336
2.9349,0.7337
2.9353,0.7338
2.9358,0.7339
2.9361,0.7338
2.9364,0.7336
2.9366,0.7335
2.9368,0.7333
2.937,0.7331
2.9372,0.7329
2.9375,0.7329
2.9378,0.7329
2.9382,0.7329
2.9386,0.733
2.9391,0.7332
2.9396,0.7333
2.9402,0.7334
2.9406,0.7334
2.9408,0.7333
2.941,0.7331
2.9412,0.7329
2.9414,0.7328
2.9417,0.7327
2.942,0.7326
2.9423,0.7326
2.9427,0.7326
2.943,0.7326
2.9434,0.7326
2.9437,0.7326
2.944,0.7326
2.9443,0.7326
2.9447,0.7326
2.945,0.7325
2.9454,0.7323
2.9457,0.7323
2.9461,0.7323
2.9466,0.7324
2.947,0.7325
2.9474,0.7326
2.9477,0.7325
2.948,0.7324
2.9482,0.7321
2.9484,0.732
2.9486,0.7319
2.9489,0.7319
2.9492,0.7318
2.9495,0.7317
2.9499,0.7318
2.9503,0.7319
2.9509,0.732
2.9514,0.7322
2.9519,0.7323
2.9522,0.7322
2.9525,0.732
2.9526,0.7318
2.9528,0.7317
2.9531,0.7316
2.9533,0.7315
2.9537,0.7315
2.954,0.7314
2.9543,0.7314
2.9547,0.7314
2.955,0.7314
2.9554,0.7314
2.9557,0.7314
2.956,0.7313
2.9563,0.7312
2.9567,0.7313
2.9571,0.7312
2.9575,0.7311
2.9579,0.7312
2.9583,0.7313
2.9588,0.7313
2.9591,0.7314
2.9594,0.7313
2.9596,0.7311
2.9598,0.731
2.96,0.7308
2.9603,0.7308
2.9606,0.7308
2.9609,0.7306
2.9612,0.7305
2.9617,0.7305
2.9622,0.7307
2.9627,0.7308
2.9632,0.7309
2.9636,0.731
2.9638,0.731
2.964,0.7308
2.9642,0.7305
2.9644,0.7303
2.9647,0.7303
2.965,0.7303
2.9653,0.7302
2.9657,0.7301
2.966,0.7302
2.9664,0.7302
2.9667,0.7301
2.967,0.7302
2.9673,0.73
2.9677,0.73
2.968,0.7299
2.9684,0.7299
2.9688,0.73
2.9692,0.73
2.9696,0.7301
2.9701,0.7302
2.9705,0.7302
2.9708,0.7301
2.971,0.7299
2.9712,0.7297
2.9714,0.7295
2.9716,0.7294
2.9719,0.7294
2.9722,0.7293
2.9725,0.7293
2.9729,0.7293
2.9734,0.7294
2.9739,0.7294
2.9744,0.7295
2.9749,0.7297
2.9752,0.7298
2.9755,0.7297
2.9756,0.7295
2.9759,0.7293
2.9761,0.7291
2.9764,0.729
2.9767,0.7289
2.977,0.7289
2.9774,0.7289
2.9777,0.7289
2.9781,0.729
2.9784,0.7289
2.9787,0.7288
2.979,0.7288
2.9794,0.7288
2.9797,0.7288
2.9801,0.7288
2.9805,0.7287
2.9809,0.7288
2.9813,0.729
2.9818,0.729
2.9821,0.729
2.9824,0.7288
2.9826,0.7286
2.9828,0.7285
2.983,0.7283
2.9832,0.7282
2.9835,0.7281
2.9838,0.7281
2.9842,0.7281
2.9847,0.7282
2.9852,0.7284
2.9857,0.7286
2.9862,0.7286
2.9866,0.7286
2.9868,0.7285
2.987,0.7283
2.9872,0.7281
2.9875,0.728
2.9877,0.728
2.988,0.7279
2.9883,0.7278
2.9886,0.7277
2.989,0.7276
2.9894,0.7276
2.9897,0.7276
2.99,0.7276
2.9903,0.7276
2.9906,0.7276
2.991,0.7275
2.9914,0.7275
2.9917,0.7275
2.9922,0.7275
2.9926,0.7277
2.9931,0.7278
2.9935,0.7278
2.9938,0.7277
2.994,0.7275
2.9942,0.7272
2.9944,0.7272
2.9946,0.7271
2.9949,0.727
2.9952,0.727
2.9955,0.727
2.9959,0.7269
2.9964,0.7271
2.9969,0.7271
2.9975,0.7272
2.9979,0.7273
2.9982,0.7272
2.9984,0.7272
2.9986,0.727
2.9988,0.7268
2.999,0.7267
2.9993,0.7266
2.9996,0.7265
3.0,0.7265
3.0003,0.7266
3.0007,0.7266
3.0011,0.7265
3.0014,0.7264
3.0017,0.7264
3.002,0.7264
3.0023,0.7264
3.0027,0.7263
3.0031,0.7262
3.0035,0.7263
3.0039,0.7265
3.0043,0.7265
3.0048,0.7265
3.0051,0.7265
3.0054,0.7264
3.0056,0.7262
3.0058,0.7261
3.006,0.726
3.0063,0.7258
3.0065,0.7256
3.0069,0.7257
3.0072,0.7257
3.0076,0.7255
3.0081,0.7257
3.0087,0.7259
3.0092,0.7262
3.0096,0.7262
3.0098,0.726
3.01,0.7259
3.0102,0.7258
3.0104,0.7256
3.0107,0.7254
3.011,0.7253
3.0113,0.7254
3.0117,0.7253
3.012,0.7253
3.0124,0.7253
3.0127,0.7252
3.013,0.7251
3.0134,0.7251
3.0137,0.7251
3.014,0.7251
3.0144,0.725
3.0148,0.7251
3.0152,0.7252
3.0156,0.7252
3.016,0.7252
3.0164,0.7253
3.0168,0.7252
3.017,0.7251
3.0172,0.7248
3.0174,0.7247
3.0176,0.7246
3.0179,0.7245
3.0182,0.7244
3.0185,0.7244
3.0189,0.7244
3.0194,0.7246
3.0199,0.7247
3.0205,0.7248
3.0209,0.7249
3.0212,0.7248
3.0214,0.7247
3.0216,0.7245
3.0218,0.7243
3.0221,0.7242
3.0223,0.7242
3.0227,0.7241
3.023,0.7241
3.0234,0.724
3.0237,0.724
3.0241,0.7239
3.0244,0.7239
3.0247,0.7239
3.025,0.7239
3.0254,0.7238
3.0257,0.7238
3.0261,0.7239
3.0264,0.7239
3.0269,0.7239
3.0273,0.724
3.0278,0.724
3.0281,0.724
3.0284,0.7239
3.0286,0.7237
3.0288,0.7236
3.029,0.7234
3.0292,0.7233
3.0295,0.7233
3.0299,0.7233
3.0302,0.7233
3.0307,0.7234
3.0312,0.7235
3.0317,0.7236
3.0322,0.7237
3.0326,0.7236
3.0328,0.7235
3.033,0.7233
3.0332,0.7233
3.0334,0.7232
3.0337,0.723
3.034,0.7229
3.0343,0.7228
3.0347,0.7229
3.035,0.7229
3.0354,0.7229
3.0357,0.7228
3.0361,0.7228
3.0364,0.7227
3.0367,0.7226
3.037,0.7226
3.0374,0.7227
3.0378,0.7227
3.0382,0.7227
3.0386,0.7227
3.039,0.7228
3.0394,0.7227
3.0397,0.7226
3.04,0.7225
3.0402,0.7225
3.0404,0.7224
3.0406,0.7221
3.0409,0.7221
3.0412,0.7221
3.0416,0.7221
3.042,0.7221
3.0424,0.7222
3.043,0.7224
3.0435,0.7225
3.0439,0.7226
3.0442,0.7224
3.0444,0.7223
3.0446,0.7221
3.0448,0.7219
3.045,0.7219
3.0453,0.7218
3.0456,0.7218
3.046,0.7216
3.0463,0.7215
3.0467,0.7216
3.047,0.7217
3.0474,0.7216
3.0477,0.7215
3.048,0.7215
3.0484,0.7216
3.0487,0.7215
3.0491,0.7213
3.0495,0.7214
3.0499,0.7215
3.0504,0.7216
3.0508,0.7216
3.0511,0.7217
3.0514,0.7216
3.0516,0.7213
3.0518,0.721
3.052,0.7209
3.0522,0.721
3.0525,0.721
3.0529,0.7209
3.0533,0.721
3.0537,0.721
3.0542,0.721
3.0547,0.7212
3.0552,0.7214
3.0555,0.7214
3.0558,0.7211
3.056,0.7208
3.0562,0.7207
3.0564,0.7207
3.0567,0.7206
3.057,0.7206
3.0573,0.7205
3.0577,0.7205
3.058,0.7204
3.0584,0.7204
3.0587,0.7205
3.0591,0.7205
3.0594,0.7204
3.0597,0.7203
3.06,0.7202
3.0604,0.7202
3.0608,0.7201
3.0612,0.7201
3.0616,0.7203
3.0621,0.7204
3.0625,0.7204
3.0628,0.7202
3.063,0.7201
3.0631,0.72
3.0634,0.7199
3.0636,0.7198
3.0639,0.7197
3.0642,0.7197
3.0645,0.7196
3.065,0.7196
3.0655,0.7197
3.066,0.7199
3.0665,0.7201
3.0669,0.72
3.0672,0.7199
3.0674,0.7199
3.0676,0.7197
3.0678,0.7194
3.068,0.7193
3.0683,0.7193
3.0686,0.7192
3.069,0.7192
3.0693,0.7192
3.0697,0.7193
3.07,0.7192
3.0704,0.7191
3.0707,0.7191
3.071,0.7191
3.0714,0.719
3.0717,0.719
3.0721,0.7191
3.0725,0.7192
3.0729,0.7192
3.0734,0.7192
3.0738,0.7192
3.0741,0.7192
3.0744,0.7191
3.0745,0.7189
3.0747,0.7187
3.075,0.7185
3.0752,0.7184
3.0755,0.7184
3.0759,0.7184
3.0763,0.7184
3.0767,0.7185
3.0772,0.7187
3.0778,0.7188
3.0782,0.7188
3.0785,0.7188
3.0787,0.7187
3.0789,0.7185
3.0791,0.7183
3.0794,0.7181
3.0797,0.7181
3.08,0.7181
3.0803,0.7181
3.0807,0.7181
3.0811,0.7182
3.0814,0.7181
3.0817,0.718
3.0821,0.7179
3.0824,0.7179
3.0827,0.7179
3.0831,0.7179
3.0834,0.7179
3.0838,0.7178
3.0842,0.7179
3.0847,0.7179
3.0851,0.7181
3.0855,0.7181
3.0857,0.7179
3.0859,0.7177
3.0861,0.7175
3.0863,0.7174
3.0866,0.7173
3.0868,0.7172
3.0872,0.7172
3.0875,0.7172
3.088,0.7173
3.0885,0.7174
3.089,0.7176
3.0896,0.7177
3.0899,0.7177
3.0902,0.7176
3.0904,0.7174
3.0906,0.7172
3.0908,0.7171
3.091,0.7169
3.0914,0.717
3.0917,0.717
3.092,0.7169
3.0924,0.7169
3.0928,0.7169
3.0931,0.717
3.0934,0.7169
3.0937,0.7168
3.094,0.7168
3.0944,0.7166
3.0947,0.7167
3.0951,0.7167
3.0955,0.7167
3.096,0.7167
3.0964,0.7169
3.0968,0.7168
3.0971,0.7168
3.0973,0.7167
3.0975,0.7165
3.0977,0.7163
3.098,0.7162
3.0982,0.7162
3.0985,0.7161
3.0989,0.716
3.0993,0.716
3.0997,0.7162
3.1003,0.7164
3.1008,0.7165
3.1013,0.7165
3.1016,0.7164
3.1017,0.7163
3.1019,0.7161
3.1021,0.716
3.1024,0.7159
3.1027,0.7158
3.103,0.7158
3.1033,0.7157
3.1037,0.7157
3.104,0.7156
3.1044,0.7155
3.1047,0.7156
3.105,0.7156
3.1054,0.7155
3.1057,0.7155
3.106,0.7155
3.1064,0.7155
3.1068,0.7155
3.1072,0.7155
3.1077,0.7155
3.1081,0.7156
3.1085,0.7155
3.1087,0.7154
3.1089,0.7153
3.1091,0.7152
3.1093,0.7151
3.1096,0.715
3.1099,0.7149
3.1102,0.7148
3.1105,0.7149
3.111,0.7149
3.1115,0.7151
3.112,0.7152
3.1125,0.7152
3.1129,0.7152
3.1131,0.715
3.1133,0.715
3.1135,0.7148
3.1138,0.7146
3.114,0.7145
3.1143,0.7144
3.1146,0.7145
3.115,0.7145
3.1153,0.7145
3.1157,0.7144
3.116,0.7144
3.1164,0.7144
3.1167,0.7143
3.117,0.7143
3.1174,0.7143
3.1177,0.7143
3.1181,0.7142
3.1185,0.7143
3.1189,0.7144
3.1194,0.7145
3.1198,0.7145
3.1201,0.7143
3.1203,0.7142
3.1205,0.7141
3.1207,0.7139
3.1209,0.7138
3.1212,0.7137
3.1215,0.7137
3.1219,0.7137
3.1223,0.7137
3.1228,0.7139
3.1233,0.714
3.1238,0.714
3.1242,0.714
3.1245,0.7139
3.1247,0.7139
3.1249,0.7137
3.1251,0.7136
3.1254,0.7135
3.1257,0.7135
3.126,0.7135
3.1263,0.7135
3.1267,0.7135
3.1271,0.7134
3.1274,0.7133
3.1277,0.7133
3.128,0.7133
3.1283,0.7132
3.1287,0.7131
3.129,0.7124
3.1292,0.5806
3.1297,0.7544
